Sample Index; EXG Channel 0; EXG Channel 1; EXG Channel 2; EXG Channel 3; EXG Channel 4; EXG Channel 5; EXG Channel 6; EXG Channel 7; Accel Channel 0; Accel Channel 1; Accel Channel 2; Other; Other; Other; Other; Other; Other; Other; Analog Channel 0; Analog Channel 1; Analog Channel 2; Timestamp; Timestamp (Formatted)
0.0; -93750.0078125; -93750.0078125; -93750.0078125; -93750.0078125; -93750.0078125; -93750.0078125; -93750.0078125; -93750.0078125; 0.004000000189989805; 0.906000018119812; 0.4000000059604645; 192.0; 0.0; 32.0; 28.0; 80.0; 12.0; 128.0; 0.0; 0.0; 0.0; 1.6145865556818745E9; 2021-03-01 11:15:55.681
1.0; -4447.3486328125; -4096.82861328125; -6704.38330078125; -40148.71484375; -26703.494140625; -14701.2783203125; -39113.2265625; -13882.958984375; 0.004000000189989805; 0.906000018119812; 0.4000000059604645; 192.0; 0.0; 0.0; 0.0; 0.0; 0.0; 0.0; 0.0; 0.0; 0.0; 1.614586555697905E9; 2021-03-01 11:15:55.697
2.0; -69456.125; -70203.359375; -129172.15625; -75709.21875; -77071.6953125; -76393.34375; -79660.765625; -79928.984375; 0.004000000189989805; 0.906000018119812; 0.4000000059604645; 192.0; 0.0; 0.0; 0.0; 0.0; 0.0; 0.0; 0.0; 0.0; 0.0; 1.6145865561766567E9; 2021-03-01 11:15:56.176
3.0; -8012.9658203125; -7351.890625; -12493.7080078125; -80309.6796875; -52436.7421875; -28529.1171875; -78235.4140625; -26863.21875; 0.004000000189989805; 0.906000018119812; 0.4000000059604645; 192.0; 0.0; 0.0; 0.0; 0.0; 0.0; 0.0; 0.0; 0.0; 0.0; 1.6145865561769984E9; 2021-03-01 11:15:56.176
4.0; -69420.984375; -70173.34375; -129158.9921875; -75676.25; -77018.96875; -76361.671875; -79624.3515625; -79892.75; 0.004000000189989805; 0.906000018119812; 0.4000000059604645; 192.0; 0.0; 0.0; 0.0; 0.0; 0.0; 0.0; 0.0; 0.0; 0.0; 1.6145865561770058E9; 2021-03-01 11:15:56.177
5.0; -5014.1220703125; -4331.14208984375; -9453.2001953125; -80178.1640625; -49569.23828125; -25554.14453125; -77072.078125; -23928.94921875; 0.004000000189989805; 0.906000018119812; 0.4000000059604645; 192.0; 0.0; 0.0; 0.0; 0.0; 0.0; 0.0; 0.0; 0.0; 0.0; 1.6145865561770124E9; 2021-03-01 11:15:56.177
6.0; -69249.03125; -70024.8359375; -129098.265625; -75505.7578125; -76902.9140625; -76191.5546875; -79450.2578125; -79718.2734375; 0.004000000189989805; 0.906000018119812; 0.4000000059604645; 192.0; 0.0; 0.0; 0.0; 0.0; 0.0; 0.0; 0.0; 0.0; 0.0; 1.614586556177019E9; 2021-03-01 11:15:56.177
7.0; -2173.148193359375; -1479.7747802734375; -6600.4697265625; -80064.7734375; -46596.34375; -22688.65234375; -74325.2734375; -21083.125; -0.010000000707805157; 0.9220000505447388; 0.4280000329017639; 192.0; 255.0; 176.0; 28.0; 208.0; 13.0; 96.0; 0.0; 0.0; 0.0; 1.614586556177026E9; 2021-03-01 11:15:56.177
8.0; -69217.0234375; -69978.1015625; -129095.7578125; -75472.15625; -76834.5625; -76153.9140625; -79417.734375; -79686.9375; -0.010000000707805157; 0.9220000505447388; 0.4280000329017639; 192.0; 0.0; 0.0; 0.0; 0.0; 0.0; 0.0; 0.0; 0.0; 0.0; 1.6145865561770327E9; 2021-03-01 11:15:56.177
9.0; 88.33409118652344; 796.7279052734375; -4331.52197265625; -80018.9765625; -44390.80859375; -20446.435546875; -72096.21875; -18851.794921875; -0.010000000707805157; 0.9220000505447388; 0.4280000329017639; 192.0; 0.0; 0.0; 0.0; 0.0; 0.0; 0.0; 0.0; 0.0; 0.0; 1.6145865561770396E9; 2021-03-01 11:15:56.177
10.0; -69076.4765625; -69862.453125; -129057.15625; -75334.984375; -76760.0703125; -76020.6953125; -79276.1796875; -79543.484375; -0.010000000707805157; 0.9220000505447388; 0.4280000329017639; 192.0; 0.0; 0.0; 0.0; 0.0; 0.0; 0.0; 0.0; 0.0; 0.0; 1.6145865561770468E9; 2021-03-01 11:15:56.177
11.0; 4295.2451171875; 5016.2900390625; -121.32526397705078; -79814.5703125; -40247.6015625; -16204.298828125; -68456.4609375; -14623.046875; -0.010000000707805157; 0.9220000505447388; 0.4280000329017639; 192.0; 0.0; 0.0; 0.0; 0.0; 0.0; 0.0; 0.0; 0.0; 0.0; 1.6145865561770537E9; 2021-03-01 11:15:56.177
12.0; -68927.9296875; -69712.5859375; -129022.6015625; -75184.2890625; -76638.4765625; -75862.734375; -79125.109375; -79392.921875; -0.010000000707805157; 0.9220000505447388; 0.4280000329017639; 192.0; 0.0; 0.0; 0.0; 0.0; 0.0; 0.0; 0.0; 0.0; 0.0; 1.6145865561770632E9; 2021-03-01 11:15:56.177
13.0; 6755.3896484375; 7436.93896484375; 2349.8388671875; -79751.359375; -37667.046875; -13740.7119140625; -66206.625; -12153.5146484375; -0.010000000707805157; 0.9220000505447388; 0.4280000329017639; 192.0; 0.0; 0.0; 0.0; 0.0; 0.0; 0.0; 0.0; 0.0; 0.0; 1.61458655617707E9; 2021-03-01 11:15:56.177
14.0; -68857.40625; -69638.890625; -129009.1015625; -75115.4921875; -76567.6875; -75795.6796875; -79054.0703125; -79321.9140625; -0.010000000707805157; 0.9220000505447388; 0.4280000329017639; 192.0; 0.0; 0.0; 0.0; 0.0; 0.0; 0.0; 0.0; 0.0; 0.0; 1.614586556177077E9; 2021-03-01 11:15:56.177
15.0; 10289.267578125; 10987.1787109375; 5893.35009765625; -79584.390625; -34304.13671875; -10212.712890625; -62669.6640625; -8618.5869140625; -0.010000000707805157; 0.9220000505447388; 0.4280000329017639; 192.0; 0.0; 0.0; 0.0; 0.0; 0.0; 0.0; 0.0; 0.0; 0.0; 1.6145865561770835E9; 2021-03-01 11:15:56.177
16.0; -68640.6875; -69445.328125; -128956.7109375; -74899.484375; -76398.84375; -75579.40625; -78834.625; -79102.6875; -0.010000000707805157; 0.9220000505447388; 0.4280000329017639; 192.0; 0.0; 0.0; 0.0; 0.0; 0.0; 0.0; 0.0; 0.0; 0.0; 1.6145865561770904E9; 2021-03-01 11:15:56.177
17.0; 13602.8017578125; 14324.1591796875; 9234.623046875; -79421.6484375; -30877.1015625; -6821.349609375; -59285.09375; -5224.943359375; -0.010000000707805157; 0.9220000505447388; 0.4280000329017639; 192.0; 0.0; 0.0; 30.0; 0.0; 2.0; 32.0; 0.0; 0.0; 0.0; 1.6145865561770976E9; 2021-03-01 11:15:56.177
18.0; -68562.0546875; -69349.9921875; -128954.515625; -74819.78125; -76258.0; -75492.7421875; -78754.9140625; -79022.6484375; -0.010000000707805157; 0.9220000505447388; 0.4280000329017639; 192.0; 0.0; 0.0; 0.0; 0.0; 0.0; 0.0; 0.0; 0.0; 0.0; 1.614586556177104E9; 2021-03-01 11:15:56.177
19.0; 16445.65234375; 17200.78515625; 12088.404296875; -79212.453125; -28110.669921875; -3964.484130859375; -56433.7734375; -2370.71533203125; -0.010000000707805157; 0.9220000505447388; 0.4280000329017639; 192.0; 0.0; 0.0; 0.0; 0.0; 0.0; 0.0; 0.0; 0.0; 0.0; 1.614586556177111E9; 2021-03-01 11:15:56.177
20.0; -68320.671875; -69152.6484375; -128913.0078125; -74582.9609375; -76084.21875; -75259.6640625; -78509.6953125; -78776.578125; -0.010000000707805157; 0.9220000505447388; 0.4280000329017639; 192.0; 0.0; 0.0; 0.0; 0.0; 0.0; 0.0; 0.0; 0.0; 0.0; 1.6145865561771176E9; 2021-03-01 11:15:56.177
21.0; 23359.962890625; 24108.478515625; 19000.658203125; -74753.0859375; -21247.544921875; 2987.9140625; -49499.1640625; 4562.3486328125; -0.010000000707805157; 0.9220000505447388; 0.4280000329017639; 192.0; 0.0; 0.0; 0.0; 0.0; 0.0; 0.0; 0.0; 0.0; 0.0; 1.6145865561771257E9; 2021-03-01 11:15:56.177
22.0; -68048.65625; -68878.5546875; -128878.453125; -74304.90625; -75895.3671875; -74974.5234375; -78233.5390625; -78501.046875; -0.010000000707805157; 0.9220000505447388; 0.4280000329017639; 192.0; 0.0; 0.0; 0.0; 0.0; 0.0; 0.0; 0.0; 0.0; 0.0; 1.6145865561771328E9; 2021-03-01 11:15:56.177
23.0; 26194.27734375; 26991.09375; 21848.896484375; -71924.203125; -18108.130859375; 5848.244140625; -46621.66796875; 7425.673828125; -0.010000000707805157; 0.9220000505447388; 0.4280000329017639; 192.0; 0.0; 0.0; 0.0; 0.0; 0.0; 0.0; 0.0; 0.0; 0.0; 1.6145865561771495E9; 2021-03-01 11:15:56.177
24.0; -67977.5078125; -68775.7578125; -128870.2734375; -74235.7734375; -75674.7109375; -74905.875; -78164.0234375; -78431.953125; -0.010000000707805157; 0.9220000505447388; 0.4280000329017639; 192.0; 0.0; 0.0; 0.0; 0.0; 0.0; 0.0; 0.0; 0.0; 0.0; 1.6145865561771567E9; 2021-03-01 11:15:56.177
25.0; 28640.25; 29416.99609375; 24323.279296875; -69333.2734375; -15766.8525390625; 8305.1484375; -44166.48828125; 9883.8515625; -0.010000000707805157; 0.9220000505447388; 0.4280000329017639; 192.0; 0.0; 0.0; 0.0; 0.0; 0.0; 0.0; 0.0; 0.0; 0.0; 1.6145865561771636E9; 2021-03-01 11:15:56.177
26.0; -67722.296875; -68548.953125; -128811.421875; -73983.375; -75435.859375; -74653.0546875; -77908.296875; -78174.953125; -0.010000000707805157; 0.9220000505447388; 0.4280000329017639; 192.0; 0.0; 0.0; 0.0; 0.0; 0.0; 0.0; 0.0; 0.0; 0.0; 1.6145865561771705E9; 2021-03-01 11:15:56.177
27.0; 32055.640625; 32781.359375; 27700.001953125; -65923.3828125; -12165.7412109375; 11711.5087890625; -40788.98046875; 13292.4482421875; 0.0020000000949949026; 0.9160000681877136; 0.24800001084804535; 192.0; 0.0; 16.0; 28.0; 160.0; 7.0; 192.0; 0.0; 0.0; 0.0; 1.6145865561771781E9; 2021-03-01 11:15:56.177
28.0; -67664.46875; -68450.4921875; -128805.1171875; -73921.890625; -75329.5078125; -74586.515625; -77851.390625; -78118.3125; 0.0020000000949949026; 0.9160000681877136; 0.24800001084804535; 192.0; 0.0; 0.0; 0.0; 0.0; 0.0; 0.0; 0.0; 0.0; 0.0; 1.6145865561771853E9; 2021-03-01 11:15:56.177
29.0; 32417.583984375; 33141.80078125; 28072.650390625; -65587.6640625; -11872.1064453125; 12036.9052734375; -40448.2734375; 13616.5927734375; 0.0020000000949949026; 0.9160000681877136; 0.24800001084804535; 192.0; 0.0; 0.0; 0.0; 0.0; 0.0; 0.0; 0.0; 0.0; 0.0; 1.614586556177192E9; 2021-03-01 11:15:56.177
30.0; -67524.390625; -68326.578125; -128760.9296875; -73786.5; -75247.75; -74455.828125; -77711.46875; -77977.703125; 0.0020000000949949026; 0.9160000681877136; 0.24800001084804535; 192.0; 0.0; 0.0; 0.0; 0.0; 0.0; 0.0; 0.0; 0.0; 0.0; 1.614586556177199E9; 2021-03-01 11:15:56.177
31.0; 35233.30078125; 36025.890625; 30869.568359375; -62769.73046875; -9185.2255859375; 14855.7958984375; -37641.9921875; 16431.1015625; 0.0020000000949949026; 0.9160000681877136; 0.24800001084804535; 192.0; 0.0; 0.0; 0.0; 0.0; 0.0; 0.0; 0.0; 0.0; 0.0; 1.614586556177206E9; 2021-03-01 11:15:56.177
32.0; -67375.4609375; -68172.53125; -128730.328125; -73636.34375; -75095.4453125; -74299.40625; -77562.4921875; -77828.34375; 0.0020000000949949026; 0.9160000681877136; 0.24800001084804535; 192.0; 0.0; 0.0; 0.0; 0.0; 0.0; 0.0; 0.0; 0.0; 0.0; 1.6145865561772127E9; 2021-03-01 11:15:56.177
33.0; 36517.609375; 37283.55859375; 32162.19140625; -61505.6953125; -7788.06298828125; 16131.2529296875; -36353.45703125; 17714.47265625; 0.0020000000949949026; 0.9160000681877136; 0.24800001084804535; 192.0; 0.0; 0.0; 0.0; 0.0; 0.0; 0.0; 0.0; 0.0; 0.0; 1.61458655617722E9; 2021-03-01 11:15:56.177
34.0; -67322.359375; -68110.2109375; -128715.2890625; -73588.6484375; -75010.84375; -74252.15625; -77512.8984375; -77779.59375; 0.0020000000949949026; 0.9160000681877136; 0.24800001084804535; 192.0; 0.0; 0.0; 0.0; 0.0; 0.0; 0.0; 0.0; 0.0; 0.0; 1.6145865561772268E9; 2021-03-01 11:15:56.177
35.0; 38700.5703125; 39442.1328125; 34357.625; -59335.9453125; -5773.1650390625; 18270.896484375; -34205.69921875; 19859.681640625; 0.0020000000949949026; 0.9160000681877136; 0.24800001084804535; 192.0; 0.0; 0.0; 0.0; 0.0; 0.0; 0.0; 0.0; 0.0; 0.0; 1.614586556177234E9; 2021-03-01 11:15:56.177
36.0; -67136.4140625; -67937.234375; -128656.546875; -73403.6640625; -74884.2890625; -74067.0859375; -77325.1875; -77591.796875; 0.0020000000949949026; 0.9160000681877136; 0.24800001084804535; 192.0; 0.0; 0.0; 0.0; 0.0; 0.0; 0.0; 0.0; 0.0; 0.0; 1.6145865561772408E9; 2021-03-01 11:15:56.177
37.0; 40431.80078125; 41191.71484375; 36085.70703125; -57613.875; -3912.717529296875; 20026.849609375; -32455.9609375; 21612.03515625; -0.014000000432133675; 0.9020000696182251; 0.32600000500679016; 192.0; 255.0; 144.0; 28.0; 48.0; 10.0; 48.0; 0.0; 0.0; 0.0; 1.6145865561772475E9; 2021-03-01 11:15:56.177
38.0; -67118.171875; -67892.1953125; -128652.546875; -73385.21875; -74795.703125; -74043.5; -77307.953125; -77575.640625; -0.014000000432133675; 0.9020000696182251; 0.32600000500679016; 192.0; 0.0; 0.0; 0.0; 0.0; 0.0; 0.0; 0.0; 0.0; 0.0; 1.6145865561772544E9; 2021-03-01 11:15:56.177
39.0; 41265.72265625; 42042.734375; 36909.45703125; -56805.48046875; -3127.8583984375; 20811.439453125; -31697.185546875; 22385.986328125; -0.014000000432133675; 0.9020000696182251; 0.32600000500679016; 192.0; 0.0; 0.0; 0.0; 0.0; 0.0; 0.0; 0.0; 0.0; 0.0; 1.614586556177261E9; 2021-03-01 11:15:56.177
40.0; -66994.140625; -67788.703125; -128611.0390625; -73265.953125; -74694.6328125; -73928.6171875; -77184.1484375; -77450.1796875; -0.014000000432133675; 0.9020000696182251; 0.32600000500679016; 192.0; 0.0; 0.0; 0.0; 0.0; 0.0; 0.0; 0.0; 0.0; 0.0; 1.6145865561772676E9; 2021-03-01 11:15:56.177
41.0; 44306.09375; 45075.66796875; 39948.0625; -53757.8203125; -146.24745178222656; 23857.0; -28611.6171875; 25437.40234375; -0.014000000432133675; 0.9020000696182251; 0.32600000500679016; 192.0; 0.0; 0.0; 0.0; 0.0; 0.0; 0.0; 0.0; 0.0; 0.0; 1.6145865561772752E9; 2021-03-01 11:15:56.177
42.0; -66868.078125; -67657.546875; -128581.625; -73139.53125; -74578.421875; -73795.375; -77057.9921875; -77324.3359375; -0.014000000432133675; 0.9020000696182251; 0.32600000500679016; 192.0; 0.0; 0.0; 0.0; 0.0; 0.0; 0.0; 0.0; 0.0; 0.0; 1.614586556177282E9; 2021-03-01 11:15:56.177
43.0; 45460.296875; 46194.55078125; 41103.6953125; -52620.6328125; 1171.7901611328125; 25014.037109375; -27462.6484375; 26598.708984375; -0.014000000432133675; 0.9020000696182251; 0.32600000500679016; 192.0; 0.0; 0.0; 0.0; 0.0; 0.0; 0.0; 0.0; 0.0; 0.0; 1.614586556177289E9; 2021-03-01 11:15:56.177
44.0; -66836.5625; -67618.1171875; -128570.0234375; -73111.1015625; -74519.6875; -73768.015625; -77028.375; -77294.3203125; -0.014000000432133675; 0.9020000696182251; 0.32600000500679016; 192.0; 0.0; 0.0; 0.0; 0.0; 0.0; 0.0; 0.0; 0.0; 0.0; 1.614586556177296E9; 2021-03-01 11:15:56.177
45.0; 48063.3359375; 48798.75; 43697.03125; -50027.47265625; 3599.47998046875; 27587.505859375; -24899.73046875; 29166.947265625; -0.014000000432133675; 0.9020000696182251; 0.32600000500679016; 192.0; 0.0; 0.0; 0.0; 0.0; 0.0; 0.0; 0.0; 0.0; 0.0; 1.6145865561773033E9; 2021-03-01 11:15:56.177
46.0; -66639.9375; -67443.03125; -128512.7109375; -72916.1953125; -74379.0; -73572.421875; -76830.0546875; -77096.3515625; -0.014000000432133675; 0.9020000696182251; 0.32600000500679016; 192.0; 0.0; 0.0; 0.0; 0.0; 0.0; 0.0; 0.0; 0.0; 0.0; 1.61458655617731E9; 2021-03-01 11:15:56.177
47.0; 50540.375; 51308.046875; 46189.1171875; -47544.08203125; 6241.61279296875; 30089.671875; -22378.54296875; 31678.880859375; -0.05000000074505806; 0.9040000438690186; 0.3660000264644623; 192.0; 254.0; 112.0; 28.0; 64.0; 11.0; 112.0; 0.0; 0.0; 0.0; 1.6145865561773229E9; 2021-03-01 11:15:56.177
48.0; -66666.7109375; -67422.8984375; -128508.3984375; -72941.1171875; -74260.0234375; -73590.96875; -76860.921875; -77129.71875; -0.05000000074505806; 0.9040000438690186; 0.3660000264644623; 192.0; 0.0; 0.0; 0.0; 0.0; 0.0; 0.0; 0.0; 0.0; 0.0; 1.6145865561773293E9; 2021-03-01 11:15:56.177
49.0; 46507.609375; 47318.88671875; 42258.140625; -51502.953125; 1843.638916015625; 26096.95703125; -26419.76171875; 27674.767578125; -0.05000000074505806; 0.9040000438690186; 0.3660000264644623; 192.0; 0.0; 0.0; 0.0; 0.0; 0.0; 0.0; 0.0; 0.0; 0.0; 1.6145865561773362E9; 2021-03-01 11:15:56.177
50.0; -65447.4921875; -66658.9765625; -128369.328125; -71752.203125; -73788.046875; -72427.3125; -75602.9140625; -75855.3828125; -0.05000000074505806; 0.9040000438690186; 0.3660000264644623; 192.0; 0.0; 0.0; 0.0; 0.0; 0.0; 0.0; 0.0; 0.0; 0.0; 1.614586556177343E9; 2021-03-01 11:15:56.177
51.0; 56928.39453125; 57744.09765625; 52767.83984375; -40702.48046875; 10792.4951171875; 36906.99609375; -15789.2265625; 38416.1875; -0.05000000074505806; 0.9040000438690186; 0.3660000264644623; 192.0; 0.0; 0.0; 0.0; 0.0; 0.0; 0.0; 0.0; 0.0; 0.0; 1.6145865561773496E9; 2021-03-01 11:15:56.177
52.0; -64318.328125; -65250.03515625; -128221.09375; -70591.65625; -72808.0546875; -71215.921875; -74496.3984375; -74769.5078125; -0.05000000074505806; 0.9040000438690186; 0.3660000264644623; 192.0; 0.0; 0.0; 0.0; 0.0; 0.0; 0.0; 0.0; 0.0; 0.0; 1.6145865561773562E9; 2021-03-01 11:15:56.177
53.0; 30128.4296875; 30736.396484375; 25398.041015625; -67592.1171875; -13561.4287109375; 9366.587890625; -43031.17578125; 10961.7197265625; -0.05000000074505806; 0.9040000438690186; 0.3660000264644623; 192.0; 0.0; 0.0; 0.0; 0.0; 0.0; 0.0; 0.0; 0.0; 0.0; 1.614586556177363E9; 2021-03-01 11:15:56.177
54.0; -65262.1953125; -65885.0078125; -128238.3203125; -71536.1328125; -72908.1015625; -72172.3515625; -75457.40625; -75728.46875; -0.05000000074505806; 0.9040000438690186; 0.3660000264644623; 192.0; 0.0; 0.0; 0.0; 0.0; 0.0; 0.0; 0.0; 0.0; 0.0; 1.6145865561773696E9; 2021-03-01 11:15:56.177
55.0; 12369.9248046875; 13019.779296875; 7868.59619140625; -76275.5078125; -31641.91015625; -8325.0859375; -60705.28125; -6713.50244140625; -0.05000000074505806; 0.9040000438690186; 0.3660000264644623; 192.0; 0.0; 0.0; 0.0; 0.0; 0.0; 0.0; 0.0; 0.0; 0.0; 1.6145865561773765E9; 2021-03-01 11:15:56.177
56.0; -65574.9609375; -66242.40625; -128196.4375; -71854.21875; -73083.8125; -72500.1171875; -75772.8125; -76041.1484375; -0.03400000184774399; 0.9000000357627869; 0.4100000262260437; 192.0; 254.0; 240.0; 28.0; 32.0; 12.0; 208.0; 0.0; 0.0; 0.0; 1.6145865561773832E9; 2021-03-01 11:15:56.177
57.0; 3645.323486328125; 4342.98828125; -723.4365234375; -76544.7734375; -40356.609375; -16919.353515625; -68682.7734375; -15341.2978515625; -0.03400000184774399; 0.9000000357627869; 0.4100000262260437; 192.0; 0.0; 0.0; 0.0; 0.0; 0.0; 0.0; 0.0; 0.0; 0.0; 1.6145865561773896E9; 2021-03-01 11:15:56.177
58.0; -65798.03125; -66497.21875; -128200.796875; -72078.765625; -73218.3203125; -72724.4609375; -75995.75; -76262.515625; -0.03400000184774399; 0.9000000357627869; 0.4100000262260437; 192.0; 0.0; 0.0; 0.0; 0.0; 0.0; 0.0; 0.0; 0.0; 0.0; 1.614586556177396E9; 2021-03-01 11:15:56.177
59.0; 1331.3369140625; 2055.86865234375; -2970.367919921875; -76651.5703125; -42860.5859375; -19192.615234375; -70853.3515625; -17603.71875; -0.03400000184774399; 0.9000000357627869; 0.4100000262260437; 192.0; 0.0; 0.0; 0.0; 0.0; 0.0; 0.0; 0.0; 0.0; 0.0; 1.6145865561774027E9; 2021-03-01 11:15:56.177
60.0; -65747.765625; -66505.78125; -128163.84375; -72031.4921875; -73260.453125; -72681.8125; -75942.0625; -76207.7109375; -0.03400000184774399; 0.9000000357627869; 0.4100000262260437; 192.0; 0.0; 0.0; 0.0; 0.0; 0.0; 0.0; 0.0; 0.0; 0.0; 1.6145865561774096E9; 2021-03-01 11:15:56.177
61.0; 3448.337646484375; 4161.47021484375; -841.833740234375; -76517.4375; -40850.42578125; -17060.705078125; -68716.0546875; -15473.44140625; -0.03400000184774399; 0.9000000357627869; 0.4100000262260437; 192.0; 0.0; 0.0; 0.0; 0.0; 0.0; 0.0; 0.0; 0.0; 0.0; 1.614586556177416E9; 2021-03-01 11:15:56.177
62.0; -65674.7890625; -66442.1640625; -128136.7578125; -71957.7265625; -73219.328125; -72601.796875; -75868.7265625; -76135.5390625; -0.03400000184774399; 0.9000000357627869; 0.4100000262260437; 192.0; 0.0; 0.0; 0.0; 0.0; 0.0; 0.0; 0.0; 0.0; 0.0; 1.6145865561774228E9; 2021-03-01 11:15:56.177
63.0; 3407.5234375; 4118.5546875; -883.5420532226562; -76550.65625; -40724.33984375; -17109.58984375; -68750.65625; -15518.123046875; -0.03400000184774399; 0.9000000357627869; 0.4100000262260437; 192.0; 0.0; 0.0; 0.0; 0.0; 0.0; 0.0; 0.0; 0.0; 0.0; 1.6145865561774297E9; 2021-03-01 11:15:56.177
64.0; -65707.2890625; -66468.8984375; -128130.0546875; -71989.9609375; -73203.7265625; -72637.0234375; -75901.0234375; -76167.609375; -0.03400000184774399; 0.9000000357627869; 0.4100000262260437; 192.0; 0.0; 0.0; 0.0; 0.0; 0.0; 0.0; 0.0; 0.0; 0.0; 1.614586556177436E9; 2021-03-01 11:15:56.177
65.0; 4584.63330078125; 5281.85107421875; 315.5619201660156; -76473.3203125; -39722.87109375; -15954.49609375; -67602.7109375; -14344.90234375; -0.03400000184774399; 0.9000000357627869; 0.4100000262260437; 192.0; 0.0; 0.0; 0.0; 0.0; 0.0; 0.0; 0.0; 0.0; 0.0; 1.6145865561774428E9; 2021-03-01 11:15:56.177
66.0; -65555.296875; -66344.625; -128080.8125; -71840.0234375; -73073.5703125; -72488.40625; -75747.5546875; -76014.2578125; -0.06400000303983688; 0.9100000262260437; 0.2720000147819519; 192.0; 254.0; 0.0; 28.0; 112.0; 8.0; 128.0; 0.0; 0.0; 0.0; 1.6145865561774497E9; 2021-03-01 11:15:56.177
67.0; 6301.73876953125; 7012.18896484375; 2041.1612548828125; -76365.7578125; -37885.4921875; -14201.560546875; -66168.4453125; -12599.7451171875; -0.06400000303983688; 0.9100000262260437; 0.2720000147819519; 192.0; 0.0; 0.0; 0.0; 0.0; 0.0; 0.0; 0.0; 0.0; 0.0; 1.614586556177456E9; 2021-03-01 11:15:56.177
68.0; -65535.6484375; -66310.0703125; -128082.9375; -71817.9609375; -72904.5703125; -72461.6015625; -75725.453125; -75993.671875; -0.06400000303983688; 0.9100000262260437; 0.2720000147819519; 192.0; 0.0; 0.0; 0.0; 0.0; 0.0; 0.0; 0.0; 0.0; 0.0; 1.6145865561774628E9; 2021-03-01 11:15:56.177
69.0; 7375.896484375; 8072.06396484375; 3119.096435546875; -76341.2890625; -36783.21484375; -13156.68359375; -65262.84375; -11530.4599609375; -0.06400000303983688; 0.9100000262260437; 0.2720000147819519; 192.0; 0.0; 0.0; 0.0; 0.0; 0.0; 0.0; 0.0; 0.0; 0.0; 1.6145865561774695E9; 2021-03-01 11:15:56.177
70.0; -65415.6171875; -66199.984375; -128038.34375; -71702.2734375; -72766.2578125; -72348.390625; -75604.640625; -75872.28125; -0.06400000303983688; 0.9100000262260437; 0.2720000147819519; 192.0; 0.0; 0.0; 0.0; 0.0; 0.0; 0.0; 0.0; 0.0; 0.0; 1.6145865561774793E9; 2021-03-01 11:15:56.177
71.0; 10278.94140625; 10925.3310546875; 6011.5908203125; -76159.9921875; -33952.6796875; -10264.30078125; -62682.828125; -8655.3779296875; -0.06400000303983688; 0.9100000262260437; 0.2720000147819519; 192.0; 0.0; 0.0; 0.0; 0.0; 0.0; 0.0; 0.0; 0.0; 0.0; 1.614586556177486E9; 2021-03-01 11:15:56.177
72.0; -65306.8984375; -66103.40625; -128009.015625; -71594.21875; -72725.2421875; -72231.7421875; -75494.84375; -75763.109375; -0.06400000303983688; 0.9100000262260437; 0.2720000147819519; 192.0; 0.0; 0.0; 0.0; 0.0; 0.0; 0.0; 0.0; 0.0; 0.0; 1.6145865561774924E9; 2021-03-01 11:15:56.177
73.0; 10708.51953125; 11380.2119140625; 6480.61962890625; -76171.546875; -33372.16015625; -9801.5078125; -62253.2734375; -8195.646484375; -0.06400000303983688; 0.9100000262260437; 0.2720000147819519; 192.0; 0.0; 0.0; 0.0; 0.0; 0.0; 0.0; 0.0; 0.0; 0.0; 1.6145865561774993E9; 2021-03-01 11:15:56.177
74.0; -65338.86328125; -66104.5234375; -128001.4609375; -71626.6328125; -72631.9453125; -72265.375; -75528.640625; -75796.75; -0.06400000303983688; 0.9100000262260437; 0.2720000147819519; 192.0; 0.0; 0.0; 0.0; 0.0; 0.0; 0.0; 0.0; 0.0; 0.0; 1.6145865561775057E9; 2021-03-01 11:15:56.177
75.0; 12326.6064453125; 13074.3837890625; 8123.1376953125; -76102.5234375; -31896.654296875; -8145.5341796875; -60642.828125; -6575.86083984375; -0.06400000303983688; 0.9100000262260437; 0.2720000147819519; 192.0; 0.0; 0.0; 0.0; 0.0; 0.0; 0.0; 0.0; 0.0; 0.0; 1.614586556177513E9; 2021-03-01 11:15:56.177
76.0; -65204.6171875; -65999.9140625; -127950.6328125; -71492.8125; -72491.8046875; -72132.5859375; -75393.5078125; -75660.25; -0.04400000348687172; 0.9100000262260437; 0.2680000066757202; 192.0; 254.0; 160.0; 28.0; 112.0; 8.0; 96.0; 0.0; 0.0; 0.0; 1.6145865561775196E9; 2021-03-01 11:15:56.177
77.0; 14071.1826171875; 14824.123046875; 9877.4365234375; -76028.0234375; -30005.31640625; -6376.6171875; -58868.45703125; -4820.8017578125; -0.04400000348687172; 0.9100000262260437; 0.2680000066757202; 192.0; 0.0; 0.0; 0.0; 0.0; 0.0; 0.0; 0.0; 0.0; 0.0; 1.6145865561775267E9; 2021-03-01 11:15:56.177
78.0; -65250.1484375; -66014.375; -127950.5234375; -71537.4921875; -72465.046875; -72173.0859375; -75442.6796875; -75710.3828125; -0.04400000348687172; 0.9100000262260437; 0.2680000066757202; 192.0; 0.0; 0.0; 0.0; 0.0; 0.0; 0.0; 0.0; 0.0; 0.0; 1.6145865561775339E9; 2021-03-01 11:15:56.177
79.0; 11962.0048828125; 12621.3369140625; 7725.3212890625; -76139.8515625; -32067.599609375; -8595.228515625; -61064.94140625; -7025.890625; -0.04400000348687172; 0.9100000262260437; 0.2680000066757202; 192.0; 0.0; 0.0; 0.0; 0.0; 0.0; 0.0; 0.0; 0.0; 0.0; 1.6145865561775405E9; 2021-03-01 11:15:56.177
80.0; -65309.3828125; -66060.5546875; -127909.4140625; -71598.5546875; -72565.046875; -72238.3984375; -75503.046875; -75770.4453125; -0.04400000348687172; 0.9100000262260437; 0.2680000066757202; 192.0; 0.0; 0.0; 0.0; 0.0; 0.0; 0.0; 0.0; 0.0; 0.0; 1.6145865561775475E9; 2021-03-01 11:15:56.177
81.0; 10103.4130859375; 10779.6650390625; 5905.419921875; -76127.578125; -34015.21875; -10439.4267578125; -62919.82421875; -8863.091796875; -0.04400000348687172; 0.9100000262260437; 0.2680000066757202; 192.0; 0.0; 0.0; 0.0; 0.0; 0.0; 0.0; 0.0; 0.0; 0.0; 1.614586556177554E9; 2021-03-01 11:15:56.177
82.0; -65330.7734375; -66080.3359375; -127875.15625; -71620.1015625; -72610.0859375; -72255.9453125; -75525.6484375; -75793.2890625; -0.04400000348687172; 0.9100000262260437; 0.2680000066757202; 192.0; 0.0; 0.0; 0.0; 0.0; 0.0; 0.0; 0.0; 0.0; 0.0; 1.6145865561775608E9; 2021-03-01 11:15:56.177
83.0; 7785.38037109375; 8468.740234375; 3624.760009765625; -76243.5859375; -36170.62109375; -12749.501953125; -65003.8984375; -11161.1201171875; -0.04400000348687172; 0.9100000262260437; 0.2680000066757202; 192.0; 0.0; 0.0; 0.0; 0.0; 0.0; 0.0; 0.0; 0.0; 0.0; 1.6145865561775675E9; 2021-03-01 11:15:56.177
84.0; -65444.85546875; -66187.0234375; -127865.71875; -71735.1015625; -72679.0390625; -72374.1171875; -75640.890625; -75908.2421875; -0.04400000348687172; 0.9100000262260437; 0.2680000066757202; 192.0; 0.0; 0.0; 0.0; 0.0; 0.0; 0.0; 0.0; 0.0; 0.0; 1.614586556177574E9; 2021-03-01 11:15:56.177
85.0; 6933.130859375; 7599.81640625; 2782.61328125; -76257.3359375; -37189.16796875; -13620.99609375; -65679.34375; -12035.3408203125; -0.04400000348687172; 0.9100000262260437; 0.2680000066757202; 192.0; 0.0; 0.0; 0.0; 0.0; 0.0; 0.0; 0.0; 0.0; 0.0; 1.6145865561775808E9; 2021-03-01 11:15:56.177
86.0; -65392.55078125; -66152.1328125; -127809.1015625; -71684.34375; -72689.8125; -72324.703125; -75588.75; -75855.625; -0.01600000075995922; 0.9100000262260437; 0.33800002932548523; 192.0; 255.0; 128.0; 28.0; 112.0; 10.0; 144.0; 0.0; 0.0; 0.0; 1.6145865561775873E9; 2021-03-01 11:15:56.177
87.0; 6022.2080078125; 6698.52685546875; 1886.8448486328125; -76266.296875; -37984.6640625; -14507.5107421875; -66385.484375; -12919.77734375; -0.01600000075995922; 0.9100000262260437; 0.33800002932548523; 192.0; 0.0; 0.0; 0.0; 0.0; 0.0; 0.0; 0.0; 0.0; 0.0; 1.614586556177594E9; 2021-03-01 11:15:56.177
88.0; -65503.4375; -66241.3828125; -127802.3984375; -71793.9375; -72736.796875; -72430.0; -75700.7734375; -75968.8125; -0.01600000075995922; 0.9100000262260437; 0.33800002932548523; 192.0; 0.0; 0.0; 0.0; 0.0; 0.0; 0.0; 0.0; 0.0; 0.0; 1.6145865561776006E9; 2021-03-01 11:15:56.177
89.0; 4224.5244140625; 4902.45263671875; 108.78593444824219; -76379.5078125; -39832.41796875; -16316.482421875; -67952.03125; -14722.35546875; -0.01600000075995922; 0.9100000262260437; 0.33800002932548523; 192.0; 0.0; 0.0; 0.0; 0.0; 0.0; 0.0; 0.0; 0.0; 0.0; 1.6145865561776073E9; 2021-03-01 11:15:56.177
90.0; -65510.4140625; -66265.453125; -127761.5859375; -71805.1796875; -72770.28125; -72444.2109375; -75708.1953125; -75975.25; -0.01600000075995922; 0.9100000262260437; 0.33800002932548523; 192.0; 0.0; 0.0; 0.0; 0.0; 0.0; 0.0; 0.0; 0.0; 0.0; 1.614586556177614E9; 2021-03-01 11:15:56.177
91.0; 4479.177734375; 5153.88720703125; 376.31396484375; -76320.875; -39678.79296875; -16053.6259765625; -67694.3828125; -14463.947265625; -0.01600000075995922; 0.9100000262260437; 0.33800002932548523; 192.0; 0.0; 0.0; 0.0; 0.0; 0.0; 0.0; 0.0; 0.0; 0.0; 1.6145865561776206E9; 2021-03-01 11:15:56.177
92.0; -65524.3828125; -66270.546875; -127727.7890625; -71818.8125; -72776.25; -72453.53125; -75723.3515625; -75991.9921875; -0.01600000075995922; 0.9100000262260437; 0.33800002932548523; 192.0; 0.0; 0.0; 0.0; 0.0; 0.0; 0.0; 0.0; 0.0; 0.0; 1.614586556177627E9; 2021-03-01 11:15:56.177
93.0; 1922.585205078125; 2586.58837890625; -2163.559326171875; -76461.4296875; -42073.53515625; -18624.947265625; -70233.2890625; -17019.712890625; -0.01600000075995922; 0.9100000262260437; 0.33800002932548523; 192.0; 0.0; 0.0; 0.0; 0.0; 0.0; 0.0; 0.0; 0.0; 0.0; 1.614586556177637E9; 2021-03-01 11:15:56.177
94.0; -65680.328125; -66408.7265625; -127720.8359375; -71974.875; -72857.8515625; -72611.1171875; -75880.2578125; -76148.9921875; -0.01600000075995922; 0.9100000262260437; 0.33800002932548523; 192.0; 0.0; 0.0; 0.0; 0.0; 0.0; 0.0; 0.0; 0.0; 0.0; 1.6145865561776435E9; 2021-03-01 11:15:56.177
95.0; -82.90261840820312; 591.3377075195312; -4162.18505859375; -76524.4375; -44301.7578125; -20652.36328125; -72281.8515625; -19060.78515625; -0.006000000052154064; 0.9020000696182251; 0.38200002908706665; 192.0; 255.0; 208.0; 28.0; 48.0; 11.0; 240.0; 0.0; 0.0; 0.0; 1.6145865561776505E9; 2021-03-01 11:15:56.177
96.0; -65678.6328125; -66420.734375; -127663.9921875; -71975.34375; -72890.9609375; -72612.8359375; -75880.2109375; -76148.2578125; -0.006000000052154064; 0.9020000696182251; 0.38200002908706665; 192.0; 0.0; 0.0; 0.0; 0.0; 0.0; 0.0; 0.0; 0.0; 0.0; 1.6145865561776576E9; 2021-03-01 11:15:56.177
97.0; -2446.06298828125; -1762.9044189453125; -6505.720703125; -76588.5859375; -46580.83203125; -22984.38671875; -73978.0390625; -21407.60546875; -0.006000000052154064; 0.9020000696182251; 0.38200002908706665; 192.0; 0.0; 0.0; 0.0; 0.0; 0.0; 0.0; 0.0; 0.0; 0.0; 1.6145865561776643E9; 2021-03-01 11:15:56.177
98.0; -65854.9453125; -66572.8125; -127662.3671875; -72148.7890625; -72980.5; -72781.34375; -76057.328125; -76326.1328125; -0.006000000052154064; 0.9020000696182251; 0.38200002908706665; 192.0; 0.0; 0.0; 0.0; 0.0; 0.0; 0.0; 0.0; 0.0; 0.0; 1.6145865561776707E9; 2021-03-01 11:15:56.177
99.0; -6325.74462890625; -5641.89306640625; -10352.142578125; -76779.734375; -50463.8671875; -26881.302734375; -74711.90625; -25302.353515625; -0.006000000052154064; 0.9020000696182251; 0.38200002908706665; 192.0; 0.0; 0.0; 0.0; 0.0; 0.0; 0.0; 0.0; 0.0; 0.0; 1.6145865561776776E9; 2021-03-01 11:15:56.177
100.0; -65941.6015625; -66673.59375; -127625.53125; -72239.15625; -73072.7890625; -72877.5; -76145.4140625; -76413.6796875; -0.006000000052154064; 0.9020000696182251; 0.38200002908706665; 192.0; 0.0; 0.0; 0.0; 0.0; 0.0; 0.0; 0.0; 0.0; 0.0; 1.6145865561776848E9; 2021-03-01 11:15:56.177
101.0; -7868.81982421875; -7184.6328125; -11874.296875; -76784.6953125; -52066.95703125; -28409.021484375; -74720.1328125; -26836.576171875; -0.006000000052154064; 0.9020000696182251; 0.38200002908706665; 192.0; 0.0; 0.0; 0.0; 0.0; 0.0; 0.0; 0.0; 0.0; 0.0; 1.6145865561776912E9; 2021-03-01 11:15:56.177
102.0; -65992.3828125; -66723.2421875; -127591.734375; -72288.0234375; -73122.96875; -72922.1171875; -76195.171875; -76463.484375; -0.006000000052154064; 0.9020000696182251; 0.38200002908706665; 192.0; 0.0; 0.0; 0.0; 0.0; 0.0; 0.0; 0.0; 0.0; 0.0; 1.614586556177698E9; 2021-03-01 11:15:56.177
103.0; -10641.59765625; -9947.2412109375; -14638.0224609375; -76933.5625; -54572.5859375; -31174.669921875; -74869.734375; -29600.302734375; -0.006000000052154064; 0.9020000696182251; 0.38200002908706665; 192.0; 0.0; 0.0; 0.0; 0.0; 0.0; 0.0; 0.0; 0.0; 0.0; 1.6145865561777048E9; 2021-03-01 11:15:56.177
104.0; -66141.1328125; -66866.4296875; -127584.9609375; -72437.796875; -73225.875; -73072.140625; -76343.7890625; -76611.3203125; -0.006000000052154064; 0.9020000696182251; 0.38200002908706665; 192.0; 0.0; 0.0; 0.0; 0.0; 0.0; 0.0; 0.0; 0.0; 0.0; 1.6145865561777112E9; 2021-03-01 11:15:56.177
105.0; -11599.68359375; -10891.982421875; -15563.51953125; -76972.921875; -55598.12890625; -32124.439453125; -74911.9140625; -30554.609375; -0.0020000000949949026; 0.8960000276565552; 0.4020000100135803; 192.0; 255.0; 240.0; 28.0; 0.0; 12.0; 144.0; 0.0; 0.0; 0.0; 1.6145865561777177E9; 2021-03-01 11:15:56.177
106.0; -66108.453125; -66854.734375; -127529.6875; -72407.890625; -73267.5390625; -73043.109375; -76311.0625; -76577.9453125; -0.0020000000949949026; 0.8960000276565552; 0.4020000100135803; 192.0; 0.0; 0.0; 0.0; 0.0; 0.0; 0.0; 0.0; 0.0; 0.0; 1.6145865561777244E9; 2021-03-01 11:15:56.177
107.0; -12551.46484375; -11903.1533203125; -16510.0703125; -77002.296875; -56363.1171875; -33072.421875; -74936.9921875; -31494.388671875; -0.0020000000949949026; 0.8960000276565552; 0.4020000100135803; 192.0; 0.0; 0.0; 0.0; 0.0; 0.0; 0.0; 0.0; 0.0; 0.0; 1.6145865561777313E9; 2021-03-01 11:15:56.177
108.0; -66246.96875; -66973.1328125; -127526.9765625; -72545.15625; -73345.1484375; -73176.859375; -76450.3203125; -76718.2265625; -0.0020000000949949026; 0.8960000276565552; 0.4020000100135803; 192.0; 0.0; 0.0; 0.0; 0.0; 0.0; 0.0; 0.0; 0.0; 0.0; 1.6145865561777377E9; 2021-03-01 11:15:56.177
109.0; -14910.22265625; -14236.80859375; -18835.880859375; -77148.671875; -58706.2734375; -35448.5703125; -75082.7734375; -33872.30078125; -0.0020000000949949026; 0.8960000276565552; 0.4020000100135803; 192.0; 0.0; 0.0; 0.0; 0.0; 0.0; 0.0; 0.0; 0.0; 0.0; 1.6145865561777446E9; 2021-03-01 11:15:56.177
110.0; -66278.21875; -67027.4921875; -127492.15625; -72581.5625; -73413.09375; -73216.9609375; -76481.6953125; -76749.515625; -0.0020000000949949026; 0.8960000276565552; 0.4020000100135803; 192.0; 0.0; 0.0; 0.0; 0.0; 0.0; 0.0; 0.0; 0.0; 0.0; 1.6145865561777513E9; 2021-03-01 11:15:56.177
111.0; -14010.005859375; -13317.4375; -17919.90625; -77080.2578125; -57928.8125; -34542.83203125; -75012.6328125; -32956.99609375; -0.0020000000949949026; 0.8960000276565552; 0.4020000100135803; 192.0; 0.0; 0.0; 0.0; 0.0; 0.0; 0.0; 0.0; 0.0; 0.0; 1.6145865561777575E9; 2021-03-01 11:15:56.177
112.0; -66242.0546875; -67000.3984375; -127461.3515625; -72542.984375; -73436.9921875; -73173.5546875; -76442.2265625; -76710.15625; -0.0020000000949949026; 0.8960000276565552; 0.4020000100135803; 192.0; 0.0; 0.0; 0.0; 0.0; 0.0; 0.0; 0.0; 0.0; 0.0; 1.6145865561777642E9; 2021-03-01 11:15:56.177
113.0; -13778.4638671875; -13146.916015625; -17681.837890625; -77131.5546875; -57545.99609375; -34302.1484375; -75062.765625; -32720.740234375; -0.0020000000949949026; 0.8960000276565552; 0.4020000100135803; 192.0; 0.0; 0.0; 0.0; 0.0; 0.0; 0.0; 0.0; 0.0; 0.0; 1.614586556177771E9; 2021-03-01 11:15:56.177
114.0; -66305.5078125; -67060.3046875; -127457.4453125; -72609.59375; -73519.21875; -73239.3125; -76508.0078125; -76775.2890625; -0.0020000000949949026; 0.8960000276565552; 0.4020000100135803; 192.0; 0.0; 0.0; 0.0; 0.0; 0.0; 0.0; 0.0; 0.0; 0.0; 1.614586556177778E9; 2021-03-01 11:15:56.177
115.0; -12894.1845703125; -12277.2763671875; -16778.60546875; -77114.1640625; -56777.85546875; -33421.890625; -75047.34375; -31850.20703125; -0.006000000052154064; 0.8860000371932983; 0.42000001668930054; 192.0; 255.0; 208.0; 27.0; 176.0; 13.0; 32.0; 0.0; 0.0; 0.0; 1.6145865561777847E9; 2021-03-01 11:15:56.177
116.0; -66219.34375; -66992.0390625; -127406.4140625; -72524.9296875; -73520.3125; -73155.7109375; -76419.8515625; -76686.4609375; -0.006000000052154064; 0.8860000371932983; 0.42000001668930054; 192.0; 0.0; 0.0; 0.0; 0.0; 0.0; 0.0; 0.0; 0.0; 0.0; 1.614586556177791E9; 2021-03-01 11:15:56.177
117.0; -11322.07421875; -10706.3515625; -15176.9453125; -77057.7734375; -55113.1875; -31807.380859375; -74990.3671875; -30250.224609375; -0.006000000052154064; 0.8860000371932983; 0.42000001668930054; 192.0; 0.0; 0.0; 0.0; 0.0; 0.0; 0.0; 0.0; 0.0; 0.0; 1.6145865561778004E9; 2021-03-01 11:15:56.177
118.0; -66244.421875; -67010.3671875; -127404.0703125; -72548.3984375; -73542.671875; -73176.125; -76444.6875; -76711.359375; -0.006000000052154064; 0.8860000371932983; 0.42000001668930054; 192.0; 0.0; 0.0; 0.0; 0.0; 0.0; 0.0; 0.0; 0.0; 0.0; 1.614586556177807E9; 2021-03-01 11:15:56.177
119.0; -9972.7890625; -9356.015625; -13826.498046875; -77086.828125; -53829.703125; -30471.21484375; -75019.4453125; -28910.908203125; -0.006000000052154064; 0.8860000371932983; 0.42000001668930054; 192.0; 0.0; 0.0; 0.0; 0.0; 0.0; 0.0; 0.0; 0.0; 0.0; 1.6145865561778138E9; 2021-03-01 11:15:56.177
120.0; -66175.4453125; -66961.7578125; -127373.0; -72483.84375; -73542.984375; -73114.3671875; -76375.8671875; -76641.625; -0.006000000052154064; 0.8860000371932983; 0.42000001668930054; 192.0; 0.0; 0.0; 0.0; 0.0; 0.0; 0.0; 0.0; 0.0; 0.0; 1.6145865561778207E9; 2021-03-01 11:15:56.177
121.0; -6583.125; -5966.52978515625; -10441.169921875; -76939.328125; -50573.7265625; -27075.427734375; -74871.6328125; -25516.146484375; -0.006000000052154064; 0.8860000371932983; 0.42000001668930054; 192.0; 0.0; 0.0; 0.0; 0.0; 0.0; 0.0; 0.0; 0.0; 0.0; 1.6145865561778276E9; 2021-03-01 11:15:56.177
122.0; -66078.6640625; -66865.9140625; -127338.9140625; -72385.7421875; -73495.6875; -73011.4375; -76277.359375; -76544.328125; -0.006000000052154064; 0.8860000371932983; 0.42000001668930054; 192.0; 0.0; 0.0; 0.0; 0.0; 0.0; 0.0; 0.0; 0.0; 0.0; 1.614586556656384E9; 2021-03-01 11:15:56.656
123.0; -5242.46728515625; -4636.75732421875; -9109.0732421875; -76954.4375; -49073.140625; -25744.068359375; -74883.7734375; -24184.787109375; -0.006000000052154064; 0.8860000371932983; 0.42000001668930054; 192.0; 0.0; 0.0; 0.0; 0.0; 0.0; 0.0; 0.0; 0.0; 0.0; 1.6145865566567209E9; 2021-03-01 11:15:56.656
124.0; -66125.0625; -66898.1875; -127336.0078125; -72432.1015625; -73509.453125; -73058.0390625; -76324.25; -76591.5546875; -0.006000000052154064; 0.8860000371932983; 0.42000001668930054; 192.0; 0.0; 0.0; 0.0; 0.0; 0.0; 0.0; 0.0; 0.0; 0.0; 1.614586556656728E9; 2021-03-01 11:15:56.656
125.0; -4232.03466796875; -3610.47705078125; -8098.10400390625; -76931.796875; -48131.640625; -24750.287109375; -74862.1328125; -23212.509765625; -0.04000000283122063; 0.8800000548362732; 0.4320000112056732; 192.0; 254.0; 192.0; 27.0; 128.0; 13.0; 128.0; 0.0; 0.0; 0.0; 1.6145865566567352E9; 2021-03-01 11:15:56.656
126.0; -66051.484375; -66830.3046875; -127283.703125; -72360.2578125; -73479.59375; -72986.7578125; -76250.25; -76518.0859375; -0.04000000283122063; 0.8800000548362732; 0.4320000112056732; 192.0; 0.0; 0.0; 0.0; 0.0; 0.0; 0.0; 0.0; 0.0; 0.0; 1.6145865566567428E9; 2021-03-01 11:15:56.656
127.0; -4473.23193359375; -3843.96337890625; -8331.58984375; -76926.859375; -48166.6875; -24977.849609375; -74853.9296875; -23440.318359375; -0.04000000283122063; 0.8800000548362732; 0.4320000112056732; 192.0; 0.0; 0.0; 0.0; 0.0; 0.0; 0.0; 0.0; 0.0; 0.0; 1.6145865566567495E9; 2021-03-01 11:15:56.656
128.0; -66156.4921875; -66913.9453125; -127279.859375; -72468.421875; -73489.7421875; -73090.8515625; -76361.625; -76630.296875; -0.04000000283122063; 0.8800000548362732; 0.4320000112056732; 192.0; 0.0; 0.0; 0.0; 0.0; 0.0; 0.0; 0.0; 0.0; 0.0; 1.6145865566567566E9; 2021-03-01 11:15:56.656
129.0; -6935.65673828125; -6289.6240234375; -10761.4033203125; -77068.140625; -50637.65234375; -27440.990234375; -75004.0; -25917.78515625; -0.04000000283122063; 0.8800000548362732; 0.4320000112056732; 192.0; 0.0; 0.0; 0.0; 0.0; 0.0; 0.0; 0.0; 0.0; 0.0; 1.6145865566567633E9; 2021-03-01 11:15:56.656
130.0; -66209.4375; -66981.2890625; -127238.015625; -72535.703125; -73513.65625; -73162.015625; -76428.03125; -76695.9609375; -0.04000000283122063; 0.8800000548362732; 0.4320000112056732; 192.0; 0.0; 0.0; 0.0; 0.0; 0.0; 0.0; 0.0; 0.0; 0.0; 1.61458655665677E9; 2021-03-01 11:15:56.656
131.0; -8404.166015625; -7769.77880859375; -12215.4736328125; -77071.5625; -52187.140625; -28920.09375; -75006.28125; -27401.5390625; -0.04000000283122063; 0.8800000548362732; 0.4320000112056732; 192.0; 0.0; 0.0; 0.0; 0.0; 0.0; 0.0; 0.0; 0.0; 0.0; 1.6145865566567793E9; 2021-03-01 11:15:56.656
132.0; -66273.3671875; -67026.3046875; -127200.640625; -72587.4921875; -73504.9140625; -73210.3671875; -76480.6484375; -76749.6953125; -0.04000000283122063; 0.8800000548362732; 0.4320000112056732; 192.0; 0.0; 0.0; 0.0; 0.0; 0.0; 0.0; 0.0; 0.0; 0.0; 1.614586556656786E9; 2021-03-01 11:15:56.656
133.0; -11616.759765625; -10977.8798828125; -15397.0205078125; -77221.71875; -55248.28125; -32141.78515625; -75152.53125; -30615.474609375; -0.04000000283122063; 0.8800000548362732; 0.4320000112056732; 192.0; 0.0; 0.0; 0.0; 0.0; 0.0; 0.0; 0.0; 0.0; 0.0; 1.614586556656793E9; 2021-03-01 11:15:56.656
134.0; -66423.8828125; -67173.609375; -127203.28125; -72741.3359375; -73567.0078125; -73364.2109375; -76633.984375; -76902.40625; -0.058000002056360245; 0.8820000290870667; 0.4620000123977661; 192.0; 254.0; 48.0; 27.0; 144.0; 14.0; 112.0; 0.0; 0.0; 0.0; 1.6145865566568005E9; 2021-03-01 11:15:56.656
135.0; -13035.2685546875; -12378.3955078125; -16811.908203125; -77269.125; -56878.59375; -33559.84765625; -75203.3125; -32065.810546875; -0.058000002056360245; 0.8820000290870667; 0.4620000123977661; 192.0; 0.0; 0.0; 0.0; 0.0; 0.0; 0.0; 0.0; 0.0; 0.0; 1.6145865566568077E9; 2021-03-01 11:15:56.656
136.0; -66393.6640625; -67160.421875; -127151.40625; -72712.1015625; -73540.609375; -73335.375; -76602.2890625; -76869.59375; -0.058000002056360245; 0.8820000290870667; 0.4620000123977661; 192.0; 0.0; 0.0; 0.0; 0.0; 0.0; 0.0; 0.0; 0.0; 0.0; 1.6145865566568143E9; 2021-03-01 11:15:56.656
137.0; -13781.6162109375; -13144.4345703125; -17561.294921875; -77278.0234375; -57541.9921875; -34303.265625; -75210.6015625; -32805.65234375; -0.058000002056360245; 0.8820000290870667; 0.4620000123977661; 192.0; 0.0; 0.0; 0.0; 0.0; 0.0; 0.0; 0.0; 0.0; 0.0; 1.6145865566568213E9; 2021-03-01 11:15:56.656
138.0; -66501.9609375; -67237.3515625; -127142.7109375; -72817.734375; -73527.0; -73436.5859375; -76710.0703125; -76978.3515625; -0.058000002056360245; 0.8820000290870667; 0.4620000123977661; 192.0; 0.0; 0.0; 0.0; 0.0; 0.0; 0.0; 0.0; 0.0; 0.0; 1.6145865566568282E9; 2021-03-01 11:15:56.656
139.0; -15784.130859375; -15129.26953125; -19526.37109375; -77403.28125; -59548.95703125; -36278.33203125; -75335.9921875; -34761.85546875; -0.058000002056360245; 0.8820000290870667; 0.4620000123977661; 192.0; 0.0; 0.0; 0.0; 0.0; 0.0; 0.0; 0.0; 0.0; 0.0; 1.6145865566568348E9; 2021-03-01 11:15:56.656
140.0; -66527.75; -67268.0625; -127093.9609375; -72846.1171875; -73457.734375; -73469.78125; -76735.3203125; -77002.671875; -0.058000002056360245; 0.8820000290870667; 0.4620000123977661; 192.0; 0.0; 0.0; 0.0; 0.0; 0.0; 0.0; 0.0; 0.0; 0.0; 1.61458655665685E9; 2021-03-01 11:15:56.656
141.0; -15078.4189453125; -14415.3544921875; -18821.912109375; -77336.8515625; -58972.16796875; -35560.52734375; -75268.1328125; -34046.98046875; -0.058000002056360245; 0.8820000290870667; 0.4620000123977661; 192.0; 0.0; 0.0; 0.0; 0.0; 0.0; 0.0; 0.0; 0.0; 0.0; 1.6145865566568568E9; 2021-03-01 11:15:56.656
142.0; -66493.640625; -67239.5859375; -127053.6328125; -72810.890625; -73363.0234375; -73431.3984375; -76699.765625; -76968.2734375; -0.058000002056360245; 0.8820000290870667; 0.4620000123977661; 192.0; 0.0; 0.0; 0.0; 0.0; 0.0; 0.0; 0.0; 0.0; 0.0; 1.614586556656864E9; 2021-03-01 11:15:56.656
143.0; -15469.0380859375; -14760.9130859375; -19205.265625; -77400.1796875; -59248.28125; -35953.11328125; -75329.5546875; -34420.72265625; -0.058000002056360245; 0.8820000290870667; 0.4620000123977661; 192.0; 0.0; 0.0; 0.0; 0.0; 0.0; 0.0; 0.0; 0.0; 0.0; 1.6145865566568708E9; 2021-03-01 11:15:56.656
144.0; -66566.484375; -67313.3515625; -127049.3671875; -72885.640625; -73404.359375; -73507.015625; -76773.96875; -77042.1015625; -0.02200000174343586; 0.8860000371932983; 0.4480000138282776; 192.0; 255.0; 80.0; 27.0; 176.0; 14.0; 0.0; 0.0; 0.0; 0.0; 1.6145865566568787E9; 2021-03-01 11:15:56.656
145.0; -14525.8837890625; -13841.8759765625; -18271.880859375; -77366.828125; -58520.015625; -35033.140625; -75301.1484375; -33516.4609375; -0.02200000174343586; 0.8860000371932983; 0.4480000138282776; 192.0; 0.0; 0.0; 0.0; 0.0; 0.0; 0.0; 0.0; 0.0; 0.0; 1.6145865566568851E9; 2021-03-01 11:15:56.656
146.0; -66445.6328125; -67203.7578125; -126983.0078125; -72769.0078125; -73414.3046875; -73389.5625; -76653.15625; -76920.7109375; -0.02200000174343586; 0.8860000371932983; 0.4480000138282776; 192.0; 0.0; 0.0; 0.0; 0.0; 0.0; 0.0; 0.0; 0.0; 0.0; 1.614586556656892E9; 2021-03-01 11:15:56.656
147.0; -12730.546875; -12038.42578125; -16475.11328125; -77287.078125; -56633.10546875; -33211.29296875; -75219.8984375; -31675.28125; -0.02200000174343586; 0.8860000371932983; 0.4480000138282776; 192.0; 0.0; 0.0; 0.0; 0.0; 0.0; 0.0; 0.0; 0.0; 0.0; 1.6145865566568985E9; 2021-03-01 11:15:56.656
148.0; -66475.7421875; -67209.1484375; -126971.8984375; -72794.6640625; -73341.125; -73411.484375; -76679.3984375; -76948.7421875; -0.02200000174343586; 0.8860000371932983; 0.4480000138282776; 192.0; 0.0; 0.0; 0.0; 0.0; 0.0; 0.0; 0.0; 0.0; 0.0; 1.6145865566569052E9; 2021-03-01 11:15:56.656
149.0; -12297.9072265625; -11611.1494140625; -16018.2431640625; -77336.0234375; -56217.85546875; -32773.84765625; -75267.6875; -31239.802734375; -0.02200000174343586; 0.8860000371932983; 0.4480000138282776; 192.0; 0.0; 0.0; 0.0; 0.0; 0.0; 0.0; 0.0; 0.0; 0.0; 1.6145865566569116E9; 2021-03-01 11:15:56.656
150.0; -66426.5625; -67172.78125; -126927.640625; -72748.0390625; -73273.890625; -73366.9375; -76629.46875; -76897.8203125; -0.02200000174343586; 0.8860000371932983; 0.4480000138282776; 192.0; 0.0; 0.0; 0.0; 0.0; 0.0; 0.0; 0.0; 0.0; 0.0; 1.6145865566569183E9; 2021-03-01 11:15:56.656
151.0; -9653.3828125; -8987.30078125; -13386.6162109375; -77200.53125; -53694.0078125; -30121.03125; -75134.15625; -28600.75390625; -0.02200000174343586; 0.8860000371932983; 0.4480000138282776; 192.0; 0.0; 0.0; 0.0; 0.0; 0.0; 0.0; 0.0; 0.0; 0.0; 1.6145865566569247E9; 2021-03-01 11:15:56.656
152.0; -66341.7890625; -67098.34375; -126887.6953125; -72663.640625; -73263.8046875; -73278.5859375; -76545.734375; -76814.1796875; -0.02200000174343586; 0.8860000371932983; 0.4480000138282776; 192.0; 0.0; 0.0; 0.0; 0.0; 0.0; 0.0; 0.0; 0.0; 0.0; 1.6145865566569316E9; 2021-03-01 11:15:56.656
153.0; -9300.8515625; -8641.787109375; -13054.06640625; -77236.828125; -53162.01171875; -29799.8359375; -75166.0078125; -28247.150390625; -0.02200000174343586; 0.8860000371932983; 0.4480000138282776; 192.0; 0.0; 0.0; 0.0; 0.0; 0.0; 0.0; 0.0; 0.0; 0.0; 1.6145865566569383E9; 2021-03-01 11:15:56.656
154.0; -66403.765625; -67143.609375; -126877.6171875; -72727.1171875; -73308.109375; -73341.7265625; -76608.4296875; -76876.3203125; 0.00800000037997961; 0.878000020980835; 0.4700000286102295; 192.0; 0.0; 64.0; 27.0; 112.0; 14.0; 176.0; 0.0; 0.0; 0.0; 1.6145865566569448E9; 2021-03-01 11:15:56.656
155.0; -8270.32421875; -7582.51611328125; -12015.3134765625; -77206.5625; -52319.7109375; -28778.40625; -75136.6171875; -27217.31640625; 0.00800000037997961; 0.878000020980835; 0.4700000286102295; 192.0; 0.0; 0.0; 0.0; 0.0; 0.0; 0.0; 0.0; 0.0; 0.0; 1.6145865566569512E9; 2021-03-01 11:15:56.656
156.0; -66289.546875; -67044.3671875; -126813.0390625; -72615.3359375; -73274.578125; -73231.171875; -76494.7265625; -76761.4765625; 0.00800000037997961; 0.878000020980835; 0.4700000286102295; 192.0; 0.0; 0.0; 0.0; 0.0; 0.0; 0.0; 0.0; 0.0; 0.0; 1.614586556656958E9; 2021-03-01 11:15:56.656
157.0; -6485.0009765625; -5831.97216796875; -10248.0732421875; -77125.5390625; -50430.98828125; -26962.73046875; -75055.453125; -25415.02734375; 0.00800000037997961; 0.878000020980835; 0.4700000286102295; 192.0; 0.0; 0.0; 0.0; 0.0; 0.0; 0.0; 0.0; 0.0; 0.0; 1.6145865566569648E9; 2021-03-01 11:15:56.656
158.0; -66311.4765625; -67057.375; -126794.5546875; -72634.09375; -73270.4453125; -73245.2578125; -76516.140625; -76782.953125; 0.00800000037997961; 0.878000020980835; 0.4700000286102295; 192.0; 0.0; 0.0; 0.0; 0.0; 0.0; 0.0; 0.0; 0.0; 0.0; 1.6145865566569717E9; 2021-03-01 11:15:56.656
159.0; -5927.14599609375; -5324.341796875; -9727.27734375; -77169.2578125; -49874.40625; -26442.73828125; -75101.5; -24909.453125; 0.00800000037997961; 0.878000020980835; 0.4700000286102295; 192.0; 0.0; 0.0; 0.0; 0.0; 0.0; 0.0; 0.0; 0.0; 0.0; 1.6145865566569784E9; 2021-03-01 11:15:56.656
160.0; -66265.7421875; -67034.6484375; -126758.125; -72591.3359375; -73283.921875; -73205.2265625; -76469.203125; -76735.125; 0.00800000037997961; 0.878000020980835; 0.4700000286102295; 192.0; 0.0; 0.0; 0.0; 0.0; 0.0; 0.0; 0.0; 0.0; 0.0; 1.6145865566569853E9; 2021-03-01 11:15:56.656
161.0; -2999.17919921875; -2373.53173828125; -6788.4482421875; -77033.3203125; -47039.4453125; -23503.775390625; -74732.4296875; -21965.1484375; 0.00800000037997961; 0.878000020980835; 0.4700000286102295; 192.0; 0.0; 0.0; 0.0; 0.0; 0.0; 0.0; 0.0; 0.0; 0.0; 1.614586556656992E9; 2021-03-01 11:15:56.656
162.0; -66166.125; -66950.578125; -126724.4609375; -72492.6953125; -73259.15625; -73103.3671875; -76369.0703125; -76636.4140625; 0.00800000037997961; 0.878000020980835; 0.4700000286102295; 192.0; 0.0; 0.0; 0.0; 0.0; 0.0; 0.0; 0.0; 0.0; 0.0; 1.6145865566569989E9; 2021-03-01 11:15:56.656
163.0; -1763.708984375; -1157.1944580078125; -5552.68701171875; -77040.421875; -45596.26171875; -22278.85546875; -73997.4609375; -20713.875; 0.00800000037997961; 0.878000020980835; 0.4700000286102295; 192.0; 0.0; 0.0; 0.0; 0.0; 0.0; 0.0; 0.0; 0.0; 0.0; 1.6145865566570115E9; 2021-03-01 11:15:56.657
164.0; -66201.6171875; -66980.421875; -126719.453125; -72529.0625; -73258.9140625; -73137.8984375; -76405.4375; -76672.203125; 0.04800000041723251; 0.8860000371932983; 0.45600003004074097; 192.0; 1.0; 128.0; 27.0; 176.0; 14.0; 64.0; 0.0; 0.0; 0.0; 1.6145865566570196E9; 2021-03-01 11:15:56.657
165.0; 153.89175415039062; 777.863037109375; -3620.356689453125; -76985.125; -43807.76171875; -20347.955078125; -72017.40625; -18785.34375; 0.04800000041723251; 0.8860000371932983; 0.45600003004074097; 192.0; 0.0; 0.0; 0.0; 0.0; 0.0; 0.0; 0.0; 0.0; 0.0; 1.6145865566570265E9; 2021-03-01 11:15:56.657
166.0; -66067.6171875; -66866.9609375; -126666.2578125; -72396.6484375; -73211.2109375; -73006.6484375; -76270.03125; -76535.65625; 0.04800000041723251; 0.8860000371932983; 0.45600003004074097; 192.0; 0.0; 0.0; 0.0; 0.0; 0.0; 0.0; 0.0; 0.0; 0.0; 1.6145865566570337E9; 2021-03-01 11:15:56.657
167.0; 2472.393310546875; 3104.92529296875; -1301.4749755859375; -76891.96875; -41397.8671875; -18006.162109375; -69643.7421875; -16429.380859375; 0.04800000041723251; 0.8860000371932983; 0.45600003004074097; 192.0; 0.0; 0.0; 0.0; 0.0; 0.0; 0.0; 0.0; 0.0; 0.0; 1.6145865566570406E9; 2021-03-01 11:15:56.657
168.0; -66088.765625; -66870.4296875; -126663.53125; -72414.84375; -73187.6328125; -73019.484375; -76290.03125; -76556.109375; 0.04800000041723251; 0.8860000371932983; 0.45600003004074097; 192.0; 0.0; 0.0; 0.0; 0.0; 0.0; 0.0; 0.0; 0.0; 0.0; 1.6145865566570475E9; 2021-03-01 11:15:56.657
169.0; 2935.677978515625; 3554.4189453125; -851.4673461914062; -76943.5546875; -40921.57421875; -17572.62890625; -69204.734375; -15987.978515625; 0.04800000041723251; 0.8860000371932983; 0.45600003004074097; 192.0; 0.0; 0.0; 0.0; 0.0; 0.0; 0.0; 0.0; 0.0; 0.0; 1.6145865566570544E9; 2021-03-01 11:15:56.657
170.0; -66048.734375; -66842.7578125; -126632.7734375; -72378.03125; -73195.453125; -72985.53125; -76250.7421875; -76515.1796875; 0.04800000041723251; 0.8860000371932983; 0.45600003004074097; 192.0; 0.0; 0.0; 0.0; 0.0; 0.0; 0.0; 0.0; 0.0; 0.0; 1.614586556657061E9; 2021-03-01 11:15:56.657
171.0; 5508.654296875; 6145.142578125; 1722.1571044921875; -76810.71875; -38463.68359375; -14982.8212890625; -66860.5703125; -13404.966796875; 0.04800000041723251; 0.8860000371932983; 0.45600003004074097; 192.0; 0.0; 0.0; 0.0; 0.0; 0.0; 0.0; 0.0; 0.0; 0.0; 1.614586556657068E9; 2021-03-01 11:15:56.657
172.0; -65955.65625; -66754.5078125; -126592.2265625; -72283.90625; -73155.8046875; -72886.4453125; -76156.6171875; -76421.0390625; 0.04800000041723251; 0.8860000371932983; 0.45600003004074097; 192.0; 0.0; 0.0; 0.0; 0.0; 0.0; 0.0; 0.0; 0.0; 0.0; 1.6145865566570747E9; 2021-03-01 11:15:56.657
173.0; 6079.9423828125; 6702.14794921875; 2281.934326171875; -76835.6640625; -37698.875; -14423.333984375; -66460.984375; -12839.712890625; 0.04800000041723251; 0.8860000371932983; 0.45600003004074097; 192.0; 0.0; 0.0; 0.0; 0.0; 0.0; 0.0; 0.0; 0.0; 0.0; 1.614586556657082E9; 2021-03-01 11:15:56.657
174.0; -66019.0234375; -66807.84375; -126590.5546875; -72347.609375; -73168.1171875; -72950.59375; -76220.5390625; -76485.4765625; 0.0020000000949949026; 0.8740000128746033; 0.43400001525878906; 192.0; 0.0; 16.0; 27.0; 80.0; 13.0; 144.0; 0.0; 0.0; 0.0; 1.6145865566570888E9; 2021-03-01 11:15:56.657
175.0; 6811.49267578125; 7439.5322265625; 3032.37158203125; -76818.140625; -37096.2265625; -13694.287109375; -65895.21875; -12121.57421875; 0.0020000000949949026; 0.8740000128746033; 0.43400001525878906; 192.0; 0.0; 0.0; 0.0; 0.0; 0.0; 0.0; 0.0; 0.0; 0.0; 1.6145865566570957E9; 2021-03-01 11:15:56.657
176.0; -65922.1796875; -66732.1796875; -126540.21875; -72253.21875; -73141.25; -72856.6484375; -76121.078125; -76387.328125; 0.0020000000949949026; 0.8740000128746033; 0.43400001525878906; 192.0; 0.0; 0.0; 0.0; 0.0; 0.0; 0.0; 0.0; 0.0; 0.0; 1.614586556657102E9; 2021-03-01 11:15:56.657
177.0; 8063.23486328125; 8678.4892578125; 4289.38916015625; -76758.2109375; -35770.30078125; -12432.666015625; -64864.87109375; -10849.7822265625; 0.0020000000949949026; 0.8740000128746033; 0.43400001525878906; 192.0; 0.0; 0.0; 0.0; 0.0; 0.0; 0.0; 0.0; 0.0; 0.0; 1.6145865566571093E9; 2021-03-01 11:15:56.657
178.0; -65966.7421875; -66763.765625; -126539.34375; -72296.1796875; -73155.1796875; -72894.3125; -76166.203125; -76433.5546875; 0.0020000000949949026; 0.8740000128746033; 0.43400001525878906; 192.0; 0.0; 0.0; 0.0; 0.0; 0.0; 0.0; 0.0; 0.0; 0.0; 1.6145865566571162E9; 2021-03-01 11:15:56.657
179.0; 7792.84619140625; 8392.2978515625; 4025.325439453125; -76830.2109375; -36070.10546875; -12729.0048828125; -65170.3984375; -11143.5068359375; 0.0020000000949949026; 0.8740000128746033; 0.43400001525878906; 192.0; 0.0; 0.0; 0.0; 0.0; 0.0; 0.0; 0.0; 0.0; 0.0; 1.614586556657123E9; 2021-03-01 11:15:56.657
180.0; -65946.71875; -66758.9375; -126508.7421875; -72280.625; -73174.2890625; -72882.640625; -76146.671875; -76413.1484375; 0.0020000000949949026; 0.8740000128746033; 0.43400001525878906; 192.0; 0.0; 0.0; 0.0; 0.0; 0.0; 0.0; 0.0; 0.0; 0.0; 1.6145865566571302E9; 2021-03-01 11:15:56.657
181.0; 9641.0224609375; 10247.0673828125; 5931.77294921875; -76721.625; -34313.83984375; -10832.4375; -63282.546875; -9254.203125; 0.0020000000949949026; 0.8740000128746033; 0.43400001525878906; 192.0; 0.0; 0.0; 0.0; 0.0; 0.0; 0.0; 0.0; 0.0; 0.0; 1.6145865566571372E9; 2021-03-01 11:15:56.657
182.0; -65877.4765625; -66693.6015625; -126474.7734375; -72210.3046875; -73146.3515625; -72808.796875; -76074.875; -76341.9765625; 0.0020000000949949026; 0.8740000128746033; 0.43400001525878906; 192.0; 0.0; 0.0; 0.0; 0.0; 0.0; 0.0; 0.0; 0.0; 0.0; 1.614586556657144E9; 2021-03-01 11:15:56.657
183.0; 9726.4951171875; 10309.763671875; 6032.7578125; -76758.9921875; -34068.73046875; -10756.888671875; -63185.2734375; -9164.05859375; -0.00800000037997961; 0.8880000710487366; 0.4400000274181366; 192.0; 255.0; 192.0; 27.0; 192.0; 13.0; 192.0; 0.0; 0.0; 0.0; 1.6145865566571507E9; 2021-03-01 11:15:56.657
184.0; -65946.828125; -66755.3828125; -126474.4140625; -72280.375; -73178.78125; -72877.4765625; -76145.7109375; -76412.3828125; -0.00800000037997961; 0.8880000710487366; 0.4400000274181366; 192.0; 0.0; 0.0; 0.0; 0.0; 0.0; 0.0; 0.0; 0.0; 0.0; 1.6145865566571577E9; 2021-03-01 11:15:56.657
185.0; 10440.611328125; 11032.2392578125; 6778.255859375; -76744.734375; -33531.05859375; -10049.544921875; -62496.68359375; -8465.052734375; -0.00800000037997961; 0.8880000710487366; 0.4400000274181366; 192.0; 0.0; 0.0; 0.0; 0.0; 0.0; 0.0; 0.0; 0.0; 0.0; 1.6145865566571646E9; 2021-03-01 11:15:56.657
186.0; -65851.0546875; -66676.96875; -126426.359375; -72187.171875; -73160.5234375; -72785.125; -76048.5703125; -76314.421875; -0.00800000037997961; 0.8880000710487366; 0.4400000274181366; 192.0; 0.0; 0.0; 0.0; 0.0; 0.0; 0.0; 0.0; 0.0; 0.0; 1.6145865566571755E9; 2021-03-01 11:15:56.657
187.0; 11593.0673828125; 12140.1484375; 7951.87890625; -76683.0; -32302.337890625; -8883.87890625; -61300.57421875; -7289.10498046875; -0.00800000037997961; 0.8880000710487366; 0.4400000274181366; 192.0; 0.0; 0.0; 0.0; 0.0; 0.0; 0.0; 0.0; 0.0; 0.0; 1.614586556657183E9; 2021-03-01 11:15:56.657
188.0; -65900.984375; -66713.609375; -126424.4140625; -72236.703125; -73170.0; -72830.09375; -76099.3515625; -76366.96875; -0.00800000037997961; 0.8880000710487366; 0.4400000274181366; 192.0; 0.0; 0.0; 0.0; 0.0; 0.0; 0.0; 0.0; 0.0; 0.0; 1.6145865566571898E9; 2021-03-01 11:15:56.657
189.0; 10641.798828125; 11191.7412109375; 7015.6533203125; -76778.90625; -33249.6953125; -9850.994140625; -62293.99609375; -8271.6650390625; -0.00800000037997961; 0.8880000710487366; 0.4400000274181366; 192.0; 0.0; 0.0; 0.0; 0.0; 0.0; 0.0; 0.0; 0.0; 0.0; 1.6145865566571968E9; 2021-03-01 11:15:56.657
190.0; -65915.25; -66737.140625; -126400.2734375; -72254.7578125; -73193.53125; -72849.5859375; -76115.3515625; -76381.671875; -0.00800000037997961; 0.8880000710487366; 0.4400000274181366; 192.0; 0.0; 0.0; 0.0; 0.0; 0.0; 0.0; 0.0; 0.0; 0.0; 1.614586556657204E9; 2021-03-01 11:15:56.657
191.0; 11479.609375; 12029.9765625; 7867.6572265625; -76704.1015625; -32552.564453125; -8990.1845703125; -61465.86328125; -7416.75537109375; -0.00800000037997961; 0.8880000710487366; 0.4400000274181366; 192.0; 0.0; 0.0; 0.0; 0.0; 0.0; 0.0; 0.0; 0.0; 0.0; 1.614586556657211E9; 2021-03-01 11:15:56.657
192.0; -65874.1015625; -66694.5; -126362.09375; -72212.8984375; -73166.7578125; -72803.875; -76072.9296875; -76340.2109375; -0.00800000037997961; 0.8880000710487366; 0.4400000274181366; 192.0; 0.0; 0.0; 0.0; 0.0; 0.0; 0.0; 0.0; 0.0; 0.0; 1.6145865566572185E9; 2021-03-01 11:15:56.657
193.0; 10415.0634765625; 10965.408203125; 6826.6025390625; -76778.7109375; -33396.0546875; -10067.6279296875; -62503.25390625; -8470.953125; -0.03400000184774399; 0.8860000371932983; 0.43800002336502075; 192.0; 254.0; 240.0; 27.0; 176.0; 13.0; 176.0; 0.0; 0.0; 0.0; 1.6145865566572254E9; 2021-03-01 11:15:56.657
194.0; -65986.8828125; -66795.6796875; -126364.2890625; -72326.484375; -73218.859375; -72917.8671875; -76187.953125; -76455.59375; -0.03400000184774399; 0.8860000371932983; 0.43800002336502075; 192.0; 0.0; 0.0; 0.0; 0.0; 0.0; 0.0; 0.0; 0.0; 0.0; 1.614586556657232E9; 2021-03-01 11:15:56.657
195.0; 9773.4560546875; 10336.228515625; 6206.56494140625; -76808.546875; -34170.49609375; -10726.736328125; -63187.91015625; -9146.6015625; -0.03400000184774399; 0.8860000371932983; 0.43800002336502075; 192.0; 0.0; 0.0; 0.0; 0.0; 0.0; 0.0; 0.0; 0.0; 0.0; 1.6145865566572392E9; 2021-03-01 11:15:56.657
196.0; -65927.7421875; -66753.125; -126311.4921875; -72269.3359375; -73226.8125; -72863.7578125; -76128.2734375; -76395.9765625; -0.03400000184774399; 0.8860000371932983; 0.43800002336502075; 192.0; 0.0; 0.0; 0.0; 0.0; 0.0; 0.0; 0.0; 0.0; 0.0; 1.614586556657246E9; 2021-03-01 11:15:56.657
197.0; 9924.1962890625; 10478.67578125; 6369.017578125; -76780.4296875; -33919.3515625; -10581.78515625; -63010.16796875; -8980.3271484375; -0.03400000184774399; 0.8860000371932983; 0.43800002336502075; 192.0; 0.0; 0.0; 0.0; 0.0; 0.0; 0.0; 0.0; 0.0; 0.0; 1.6145865566572528E9; 2021-03-01 11:15:56.657
198.0; -66004.1171875; -66814.6796875; -126308.875; -72342.5546875; -73251.109375; -72932.8671875; -76203.796875; -76473.0078125; -0.03400000184774399; 0.8860000371932983; 0.43800002336502075; 192.0; 0.0; 0.0; 0.0; 0.0; 0.0; 0.0; 0.0; 0.0; 0.0; 1.61458655665726E9; 2021-03-01 11:15:56.657
199.0; 8572.51953125; 9116.9189453125; 5035.35595703125; -76892.3671875; -35246.3515625; -11955.58984375; -64388.01953125; -10360.5029296875; -0.03400000184774399; 0.8860000371932983; 0.43800002336502075; 192.0; 0.0; 0.0; 0.0; 0.0; 0.0; 0.0; 0.0; 0.0; 0.0; 1.6145865566572666E9; 2021-03-01 11:15:56.657
200.0; -66031.5234375; -66851.15625; -126280.5546875; -72373.3125; -73281.0; -72967.359375; -76232.921875; -76501.4140625; -0.03400000184774399; 0.8860000371932983; 0.43800002336502075; 192.0; 0.0; 0.0; 0.0; 0.0; 0.0; 0.0; 0.0; 0.0; 0.0; 1.6145865566572745E9; 2021-03-01 11:15:56.657
201.0; 9069.9794921875; 9611.853515625; 5554.654296875; -76831.2109375; -34861.61328125; -11444.1826171875; -63904.08203125; -9867.087890625; -0.03400000184774399; 0.8860000371932983; 0.43800002336502075; 192.0; 0.0; 0.0; 0.0; 0.0; 0.0; 0.0; 0.0; 0.0; 0.0; 1.6145865566572812E9; 2021-03-01 11:15:56.657
202.0; -66002.2421875; -66823.421875; -126240.6171875; -72343.5; -73254.1484375; -72933.984375; -76202.546875; -76471.9765625; -0.03400000184774399; 0.8860000371932983; 0.43800002336502075; 192.0; 0.0; 0.0; 0.0; 0.0; 0.0; 0.0; 0.0; 0.0; 0.0; 1.614586556657288E9; 2021-03-01 11:15:56.657
203.0; 8192.6513671875; 8715.1904296875; 4703.4326171875; -76904.3046875; -35589.20703125; -12330.33984375; -64764.890625; -10740.4375; -0.06400000303983688; 0.89000004529953; 0.4320000112056732; 192.0; 254.0; 0.0; 27.0; 208.0; 13.0; 128.0; 0.0; 0.0; 0.0; 1.6145865566572948E9; 2021-03-01 11:15:56.657
204.0; -66090.8671875; -66910.3046875; -126241.7734375; -72434.578125; -73293.625; -73024.7578125; -76291.9765625; -76561.6953125; -0.06400000303983688; 0.89000004529953; 0.4320000112056732; 192.0; 0.0; 0.0; 0.0; 0.0; 0.0; 0.0; 0.0; 0.0; 0.0; 1.6145865566573017E9; 2021-03-01 11:15:56.657
205.0; 9171.970703125; 9702.958984375; 5710.5576171875; -76887.40625; -34929.8984375; -11352.6962890625; -63808.55078125; -9784.3642578125; -0.06400000303983688; 0.89000004529953; 0.4320000112056732; 192.0; 0.0; 0.0; 0.0; 0.0; 0.0; 0.0; 0.0; 0.0; 0.0; 1.6145865566573083E9; 2021-03-01 11:15:56.657
206.0; -65977.296875; -66819.4453125; -126190.4375; -72324.453125; -73252.875; -72914.8046875; -76177.6953125; -76447.546875; -0.06400000303983688; 0.89000004529953; 0.4320000112056732; 192.0; 0.0; 0.0; 0.0; 0.0; 0.0; 0.0; 0.0; 0.0; 0.0; 1.6145865566573153E9; 2021-03-01 11:15:56.657
207.0; 11325.0693359375; 11837.751953125; 7859.54345703125; -76800.4765625; -32822.8203125; -9208.9853515625; -61649.86328125; -7628.27001953125; -0.06400000303983688; 0.89000004529953; 0.4320000112056732; 192.0; 0.0; 0.0; 0.0; 0.0; 0.0; 0.0; 0.0; 0.0; 0.0; 1.6145865566573224E9; 2021-03-01 11:15:56.657
208.0; -65996.40625; -66827.8046875; -126186.140625; -72341.0625; -73243.21875; -72927.34375; -76195.4140625; -76466.5703125; -0.06400000303983688; 0.89000004529953; 0.4320000112056732; 192.0; 0.0; 0.0; 0.0; 0.0; 0.0; 0.0; 0.0; 0.0; 0.0; 1.6145865566573296E9; 2021-03-01 11:15:56.657
209.0; 11779.7041015625; 12267.4189453125; 8315.83203125; -76855.0625; -32440.8515625; -8778.9375; -61205.04296875; -7169.4111328125; -0.06400000303983688; 0.89000004529953; 0.4320000112056732; 192.0; 0.0; 0.0; 0.0; 0.0; 0.0; 0.0; 0.0; 0.0; 0.0; 1.6145865566573367E9; 2021-03-01 11:15:56.657
210.0; -65964.578125; -66819.1484375; -126169.046875; -72312.671875; -73254.796875; -72900.8359375; -76163.7890625; -76432.90625; -0.06400000303983688; 0.89000004529953; 0.4320000112056732; 192.0; 0.0; 0.0; 0.0; 0.0; 0.0; 0.0; 0.0; 0.0; 0.0; 1.6145865566573477E9; 2021-03-01 11:15:56.657
211.0; 14880.29296875; 15397.3115234375; 11429.3857421875; -76718.4921875; -29537.962890625; -5616.85888671875; -58087.46484375; -4055.321533203125; -0.06400000303983688; 0.89000004529953; 0.4320000112056732; 192.0; 0.0; 0.0; 0.0; 0.0; 0.0; 0.0; 0.0; 0.0; 0.0; 1.6145865566573553E9; 2021-03-01 11:15:56.657
212.0; -65849.734375; -66721.3828125; -126148.90625; -72197.0703125; -73188.59375; -72780.71875; -76047.25; -76315.890625; -0.06400000303983688; 0.89000004529953; 0.4320000112056732; 192.0; 0.0; 0.0; 0.0; 0.0; 0.0; 0.0; 0.0; 0.0; 0.0; 1.6145865566573625E9; 2021-03-01 11:15:56.657
213.0; 17170.251953125; 17667.779296875; 13717.01953125; -76702.0859375; -27064.02734375; -3327.906494140625; -55798.40234375; -1750.074462890625; -0.06200000271201134; 0.8920000195503235; 0.44200003147125244; 192.0; 254.0; 16.0; 27.0; 224.0; 13.0; 208.0; 0.0; 0.0; 0.0; 1.61458655665737E9; 2021-03-01 11:15:56.657
214.0; -65862.5625; -66740.203125; -126171.7265625; -72209.9921875; -73161.953125; -72794.6484375; -76059.9453125; -76327.9375; -0.06200000271201134; 0.8920000195503235; 0.44200003147125244; 192.0; 0.0; 0.0; 0.0; 0.0; 0.0; 0.0; 0.0; 0.0; 0.0; 1.6145865566573768E9; 2021-03-01 11:15:56.657
215.0; 20650.328125; 21159.412109375; 17204.40625; -76209.453125; -23686.544921875; 149.44375610351562; -52346.734375; 1713.886962890625; -0.06200000271201134; 0.8920000195503235; 0.44200003147125244; 192.0; 0.0; 0.0; 0.0; 0.0; 0.0; 0.0; 0.0; 0.0; 0.0; 1.614586556657384E9; 2021-03-01 11:15:56.657
216.0; -65664.3046875; -66578.265625; -126139.5390625; -72015.3984375; -73047.4453125; -72600.9921875; -75859.984375; -76126.84375; -0.06200000271201134; 0.8920000195503235; 0.44200003147125244; 192.0; 0.0; 0.0; 0.0; 0.0; 0.0; 0.0; 0.0; 0.0; 0.0; 1.6145865566573908E9; 2021-03-01 11:15:56.657
217.0; 26689.099609375; 27202.49609375; 23254.41796875; -71523.75; -17522.626953125; 6222.2783203125; -46254.7421875; 7788.44287109375; -0.06200000271201134; 0.8920000195503235; 0.44200003147125244; 192.0; 0.0; 0.0; 0.0; 0.0; 0.0; 0.0; 0.0; 0.0; 0.0; 1.6145865566573987E9; 2021-03-01 11:15:56.657
218.0; -65584.015625; -66464.1875; -126143.6953125; -71934.6875; -72874.1015625; -72514.15625; -75779.34375; -76047.71875; -0.06200000271201134; 0.8920000195503235; 0.44200003147125244; 192.0; 0.0; 0.0; 0.0; 0.0; 0.0; 0.0; 0.0; 0.0; 0.0; 1.6145865566574056E9; 2021-03-01 11:15:56.657
219.0; 29543.751953125; 30066.291015625; 26098.1640625; -68614.53125; -14428.921875; 9062.5595703125; -43377.26953125; 10638.513671875; -0.06200000271201134; 0.8920000195503235; 0.44200003147125244; 192.0; 0.0; 0.0; 0.0; 0.0; 0.0; 0.0; 0.0; 0.0; 0.0; 1.614586556657414E9; 2021-03-01 11:15:56.657
220.0; -65536.3203125; -66398.8046875; -126120.2734375; -71889.9609375; -72694.3984375; -72470.703125; -75732.265625; -76000.375; -0.06200000271201134; 0.8920000195503235; 0.44200003147125244; 192.0; 0.0; 0.0; 0.0; 0.0; 0.0; 0.0; 0.0; 0.0; 0.0; 1.6145865566574209E9; 2021-03-01 11:15:56.657
221.0; 32911.734375; 33483.671875; 29466.68359375; -65148.828125; -11035.234375; 12451.84375; -39995.31640625; 14017.29296875; -0.06200000271201134; 0.8920000195503235; 0.44200003147125244; 192.0; 0.0; 0.0; 0.0; 0.0; 0.0; 0.0; 0.0; 0.0; 0.0; 1.6145865566574283E9; 2021-03-01 11:15:56.657
222.0; -65446.15234375; -66295.8984375; -126084.171875; -71799.296875; -72562.0546875; -72377.09375; -75641.09375; -75910.6328125; -0.11600000411272049; 0.8980000615119934; 0.44600000977516174; 192.0; 252.0; 96.0; 28.0; 16.0; 13.0; 240.0; 0.0; 0.0; 0.0; 1.6145865566574352E9; 2021-03-01 11:15:56.657
223.0; 33976.9765625; 34530.91796875; 30536.05859375; -64110.79296875; -9702.466796875; 13500.005859375; -38900.9765625; 15096.94921875; -0.11600000411272049; 0.8980000615119934; 0.44600000977516174; 192.0; 0.0; 0.0; 0.0; 0.0; 0.0; 0.0; 0.0; 0.0; 0.0; 1.6145865566574426E9; 2021-03-01 11:15:56.657
224.0; -65520.8046875; -66350.4609375; -126098.2578125; -71874.0859375; -72490.328125; -72451.4765625; -75717.4921875; -75987.9296875; -0.11600000411272049; 0.8980000615119934; 0.44600000977516174; 192.0; 0.0; 0.0; 0.0; 0.0; 0.0; 0.0; 0.0; 0.0; 0.0; 1.6145865566574495E9; 2021-03-01 11:15:56.657
225.0; 35375.43359375; 35918.671875; 31930.494140625; -62736.71875; -8440.287109375; 14870.9501953125; -37557.5; 16442.79296875; -0.11600000411272049; 0.8980000615119934; 0.44600000977516174; 192.0; 0.0; 0.0; 0.0; 0.0; 0.0; 0.0; 0.0; 0.0; 0.0; 1.6145865566574564E9; 2021-03-01 11:15:56.657
226.0; -65422.45703125; -66266.703125; -126060.6796875; -71780.3203125; -72436.5703125; -72360.3046875; -75622.0546875; -75892.28125; -0.11600000411272049; 0.8980000615119934; 0.44600000977516174; 192.0; 0.0; 0.0; 0.0; 0.0; 0.0; 0.0; 0.0; 0.0; 0.0; 1.6145865566574633E9; 2021-03-01 11:15:56.657
227.0; 36771.74609375; 37292.34375; 33308.34375; -61370.9375; -7018.55908203125; 16251.662109375; -36171.40234375; 17822.1171875; -0.11600000411272049; 0.8980000615119934; 0.44600000977516174; 192.0; 0.0; 0.0; 0.0; 0.0; 0.0; 0.0; 0.0; 0.0; 0.0; 1.6145865566574702E9; 2021-03-01 11:15:56.657
228.0; -65492.84375; -66305.796875; -126049.125; -71846.4140625; -72447.859375; -72422.265625; -75690.71875; -75962.6015625; -0.11600000411272049; 0.8980000615119934; 0.44600000977516174; 192.0; 0.0; 0.0; 0.0; 0.0; 0.0; 0.0; 0.0; 0.0; 0.0; 1.6145865566574774E9; 2021-03-01 11:15:56.657
229.0; 35631.51953125; 36143.86328125; 32143.1484375; -62558.6875; -8224.97265625; 15068.830078125; -37358.32421875; 16646.125; -0.11600000411272049; 0.8980000615119934; 0.44600000977516174; 192.0; 0.0; 0.0; 0.0; 0.0; 0.0; 0.0; 0.0; 0.0; 0.0; 1.6145865566574843E9; 2021-03-01 11:15:56.657
230.0; -65526.99609375; -66356.7421875; -126031.359375; -71882.7578125; -72510.015625; -72460.3984375; -75725.0703125; -75994.34375; -0.11600000411272049; 0.8980000615119934; 0.44600000977516174; 192.0; 0.0; 0.0; 0.0; 0.0; 0.0; 0.0; 0.0; 0.0; 0.0; 1.6145865566574912E9; 2021-03-01 11:15:56.657
231.0; 36830.82421875; 37332.88671875; 33344.62109375; -61334.0546875; -7241.3388671875; 16275.5341796875; -36211.703125; 17823.4140625; -0.11600000411272049; 0.8980000615119934; 0.44600000977516174; 192.0; 0.0; 0.0; 0.0; 0.0; 0.0; 0.0; 0.0; 0.0; 0.0; 1.6145865566574984E9; 2021-03-01 11:15:56.657
232.0; -65484.640625; -66316.6875; -126001.7890625; -71837.09375; -72568.671875; -72413.2109375; -75680.5234375; -75950.6015625; -0.1300000101327896; 0.800000011920929; 0.41200003027915955; 192.0; 251.0; 240.0; 25.0; 0.0; 12.0; 224.0; 0.0; 0.0; 0.0; 1.6145865566575055E9; 2021-03-01 11:15:56.657
233.0; 36182.1328125; 36691.97265625; 32737.392578125; -61954.1171875; -7713.22900390625; 15653.7080078125; -36775.45703125; 17270.521484375; -0.1300000101327896; 0.800000011920929; 0.41200003027915955; 192.0; 0.0; 0.0; 0.0; 0.0; 0.0; 0.0; 0.0; 0.0; 0.0; 1.6145865566575167E9; 2021-03-01 11:15:56.657
234.0; -65607.7578125; -66483.2734375; -126045.5078125; -71957.84375; -72650.703125; -72533.9375; -75804.0859375; -76073.3515625; -0.1300000101327896; 0.800000011920929; 0.41200003027915955; 192.0; 0.0; 0.0; 0.0; 0.0; 0.0; 0.0; 0.0; 0.0; 0.0; 1.614586556657524E9; 2021-03-01 11:15:56.657
235.0; 35666.1640625; 36237.453125; 32356.71875; -62392.72265625; -8152.5302734375; 15256.40625; -37192.609375; 16823.240234375; -0.1300000101327896; 0.800000011920929; 0.41200003027915955; 192.0; 0.0; 0.0; 0.0; 0.0; 0.0; 0.0; 0.0; 0.0; 0.0; 1.6145865566575308E9; 2021-03-01 11:15:56.657
236.0; -65574.765625; -66497.328125; -126035.15625; -71923.8203125; -72655.125; -72502.484375; -75768.03125; -76037.5; -0.1300000101327896; 0.800000011920929; 0.41200003027915955; 192.0; 0.0; 0.0; 0.0; 0.0; 0.0; 0.0; 0.0; 0.0; 0.0; 1.6145865566575377E9; 2021-03-01 11:15:56.657
237.0; 35757.5390625; 36253.61328125; 32459.201171875; -62285.92578125; -8015.6259765625; 15325.6298828125; -37076.04296875; 16908.759765625; -0.1300000101327896; 0.800000011920929; 0.41200003027915955; 192.0; 0.0; 0.0; 0.0; 0.0; 0.0; 0.0; 0.0; 0.0; 0.0; 1.6145865566575449E9; 2021-03-01 11:15:56.657
238.0; -65684.171875; -66495.390625; -126040.703125; -72031.734375; -72522.984375; -72605.8359375; -75876.484375; -76148.4375; -0.1300000101327896; 0.800000011920929; 0.41200003027915955; 192.0; 0.0; 0.0; 0.0; 0.0; 0.0; 0.0; 0.0; 0.0; 0.0; 1.6145865566575518E9; 2021-03-01 11:15:56.657
239.0; 33953.015625; 34441.51171875; 30752.51171875; -64050.28515625; -9839.4609375; 13585.9482421875; -38831.015625; 15145.83203125; -0.1300000101327896; 0.800000011920929; 0.41200003027915955; 192.0; 0.0; 0.0; 0.0; 0.0; 0.0; 0.0; 0.0; 0.0; 0.0; 1.6145865566575592E9; 2021-03-01 11:15:56.657
240.0; -65748.7734375; -66550.4140625; -126018.1953125; -72099.390625; -72377.515625; -72674.125; -75940.40625; -76210.59375; -0.1300000101327896; 0.800000011920929; 0.41200003027915955; 192.0; 0.0; 0.0; 0.0; 0.0; 0.0; 0.0; 0.0; 0.0; 0.0; 1.6145865566575663E9; 2021-03-01 11:15:56.657
241.0; 34727.43359375; 35309.47265625; 31619.8046875; -63196.11328125; -9104.177734375; 14478.990234375; -37956.79296875; 16024.255859375; -0.1300000101327896; 0.800000011920929; 0.41200003027915955; 192.0; 0.0; 0.0; 0.0; 0.0; 0.0; 0.0; 0.0; 0.0; 0.0; 1.6145865566575737E9; 2021-03-01 11:15:56.657
242.0; -65708.0703125; -66516.796875; -125975.8828125; -72059.828125; -72332.96875; -72633.3125; -75899.234375; -76169.0390625; -0.1680000126361847; 0.8580000400543213; 0.39000001549720764; 192.0; 250.0; 192.0; 26.0; 208.0; 12.0; 48.0; 0.0; 0.0; 0.0; 1.6145865566575804E9; 2021-03-01 11:15:56.657
243.0; 34842.32421875; 35311.88671875; 31635.384765625; -63166.875; -8975.365234375; 14493.1162109375; -37920.046875; 16065.8525390625; -0.1680000126361847; 0.8580000400543213; 0.39000001549720764; 192.0; 0.0; 0.0; 0.0; 0.0; 0.0; 0.0; 0.0; 0.0; 0.0; 1.6145865571364832E9; 2021-03-01 11:15:57.136
244.0; -65796.8984375; -66582.734375; -125972.390625; -72151.296875; -72352.0390625; -72722.109375; -75988.375; -76258.609375; -0.1680000126361847; 0.8580000400543213; 0.39000001549720764; 192.0; 0.0; 0.0; 0.0; 0.0; 0.0; 0.0; 0.0; 0.0; 0.0; 1.6145865571368492E9; 2021-03-01 11:15:57.136
245.0; 35703.35546875; 36127.68359375; 32485.80078125; -62301.39453125; -8310.4677734375; 15351.4677734375; -37090.3046875; 16906.0546875; -0.1680000126361847; 0.8580000400543213; 0.39000001549720764; 192.0; 0.0; 0.0; 0.0; 0.0; 0.0; 0.0; 0.0; 0.0; 0.0; 1.6145865571368563E9; 2021-03-01 11:15:57.136
246.0; -65703.6171875; -66492.03125; -125900.53125; -72061.578125; -72243.4296875; -72634.453125; -75894.0703125; -76164.2578125; -0.1680000126361847; 0.8580000400543213; 0.39000001549720764; 192.0; 0.0; 0.0; 0.0; 0.0; 0.0; 0.0; 0.0; 0.0; 0.0; 1.6145865571368628E9; 2021-03-01 11:15:57.136
247.0; 37324.171875; 37752.85546875; 34140.07421875; -60672.04296875; -6564.84130859375; 16974.62890625; -35451.23046875; 18550.115234375; -0.1680000126361847; 0.8580000400543213; 0.39000001549720764; 192.0; 0.0; 0.0; 0.0; 0.0; 0.0; 0.0; 0.0; 0.0; 0.0; 1.6145865571368697E9; 2021-03-01 11:15:57.136
248.0; -65753.84375; -66514.9453125; -125845.546875; -72107.0859375; -72177.3359375; -72674.328125; -75942.328125; -76212.3125; -0.1680000126361847; 0.8580000400543213; 0.39000001549720764; 192.0; 0.0; 0.0; 0.0; 0.0; 0.0; 0.0; 0.0; 0.0; 0.0; 1.6145865571368773E9; 2021-03-01 11:15:57.136
249.0; 36548.67578125; 36897.4765625; 33294.44140625; -61542.9765625; -7269.47998046875; 16083.041015625; -36256.96484375; 17691.404296875; -0.1680000126361847; 0.8580000400543213; 0.39000001549720764; 192.0; 0.0; 0.0; 0.0; 0.0; 0.0; 0.0; 0.0; 0.0; 0.0; 1.6145865571368837E9; 2021-03-01 11:15:57.136
250.0; -65774.1875; -66536.4921875; -125798.453125; -72131.7578125; -72143.0234375; -72703.3125; -75965.640625; -76234.265625; -0.1680000126361847; 0.8580000400543213; 0.39000001549720764; 192.0; 0.0; 0.0; 0.0; 0.0; 0.0; 0.0; 0.0; 0.0; 0.0; 1.6145865571368904E9; 2021-03-01 11:15:57.136
251.0; 38009.49609375; 38376.42578125; 34594.28515625; -60103.75; -5852.22314453125; 17545.359375; -34776.05078125; 19136.53515625; -0.1680000126361847; 0.8580000400543213; 0.39000001549720764; 192.0; 0.0; 0.0; 0.0; 0.0; 0.0; 0.0; 0.0; 0.0; 0.0; 1.614586557136897E9; 2021-03-01 11:15:57.136
252.0; -65690.5703125; -66454.015625; -125735.3984375; -72049.8359375; -72079.2734375; -72618.1796875; -75882.359375; -76150.8515625; -0.024000000208616257; 0.7600000500679016; 0.4300000071525574; 192.0; 255.0; 64.0; 23.0; 192.0; 13.0; 112.0; 0.0; 0.0; 0.0; 1.6145865571369035E9; 2021-03-01 11:15:57.136
253.0; 38708.03515625; 38516.3671875; 34766.9296875; -59864.96484375; -5431.6748046875; 17831.86328125; -34525.57421875; 19434.6171875; -0.024000000208616257; 0.7600000500679016; 0.4300000071525574; 192.0; 0.0; 0.0; 0.0; 0.0; 0.0; 0.0; 0.0; 0.0; 0.0; 1.6145865571369104E9; 2021-03-01 11:15:57.136
254.0; -65728.2734375; -66564.5625; -125744.3125; -72097.0234375; -72246.6953125; -72659.28125; -75917.765625; -76190.390625; -0.024000000208616257; 0.7600000500679016; 0.4300000071525574; 192.0; 0.0; 0.0; 0.0; 0.0; 0.0; 0.0; 0.0; 0.0; 0.0; 1.6145865571369174E9; 2021-03-01 11:15:57.136
255.0; 39693.58984375; 39907.2734375; 36280.390625; -58547.5546875; -4604.2578125; 19124.888671875; -33364.78125; 20672.568359375; -0.024000000208616257; 0.7600000500679016; 0.4300000071525574; 192.0; 0.0; 0.0; 0.0; 0.0; 0.0; 0.0; 0.0; 0.0; 0.0; 1.614586557136924E9; 2021-03-01 11:15:57.136
0.0; -65610.234375; -66465.90625; -125731.3515625; -71980.5234375; -72340.3671875; -72548.375; -75801.3984375; -76073.0625; -0.024000000208616257; 0.7600000500679016; 0.4300000071525574; 192.0; 0.0; 0.0; 0.0; 0.0; 0.0; 0.0; 0.0; 0.0; 0.0; 1.61458655713694E9; 2021-03-01 11:15:57.136
1.0; 41644.78515625; 42074.80859375; 38512.7265625; -56305.11328125; -2015.1214599609375; 21295.82421875; -31116.578125; 22923.3671875; -0.024000000208616257; 0.7600000500679016; 0.4300000071525574; 192.0; 0.0; 0.0; 0.0; 0.0; 0.0; 0.0; 0.0; 0.0; 0.0; 1.6145865571369467E9; 2021-03-01 11:15:57.136
2.0; -65647.3828125; -66449.65625; -125696.6171875; -72015.015625; -72458.40625; -72578.9765625; -75843.109375; -76116.46875; -0.024000000208616257; 0.7600000500679016; 0.4300000071525574; 192.0; 0.0; 0.0; 0.0; 0.0; 0.0; 0.0; 0.0; 0.0; 0.0; 1.614586557136953E9; 2021-03-01 11:15:57.136
3.0; 40472.32421875; 40978.3671875; 37227.85546875; -57530.3046875; -3126.696044921875; 20113.216796875; -32288.8828125; 21724.330078125; -0.024000000208616257; 0.7600000500679016; 0.4300000071525574; 192.0; 0.0; 0.0; 0.0; 0.0; 0.0; 0.0; 0.0; 0.0; 0.0; 1.6145865571369596E9; 2021-03-01 11:15:57.136
4.0; -65684.375; -66521.046875; -125616.265625; -72055.9453125; -72555.390625; -72623.875; -75883.859375; -76155.09375; -0.024000000208616257; 0.7600000500679016; 0.4300000071525574; 192.0; 0.0; 0.0; 0.0; 0.0; 0.0; 0.0; 0.0; 0.0; 0.0; 1.6145865571369665E9; 2021-03-01 11:15:57.136
5.0; 42519.65625; 42985.9140625; 39157.796875; -55538.65234375; -1483.060546875; 22076.572265625; -30349.220703125; 23655.498046875; -0.024000000208616257; 0.7600000500679016; 0.4300000071525574; 192.0; 0.0; 0.0; 0.0; 0.0; 0.0; 0.0; 0.0; 0.0; 0.0; 1.614586557136973E9; 2021-03-01 11:15:57.136
6.0; -65610.59375; -66470.9765625; -125559.1796875; -71977.84375; -72582.59375; -72541.1953125; -75804.9296875; -76076.84375; -0.10000000149011612; 0.8080000281333923; 0.4300000071525574; 192.0; 252.0; 224.0; 25.0; 64.0; 13.0; 112.0; 0.0; 0.0; 0.0; 1.6145865571369796E9; 2021-03-01 11:15:57.136
7.0; 43339.42578125; 43761.98828125; 40015.76953125; -54809.0234375; -619.3668212890625; 22829.490234375; -29575.380859375; 24435.619140625; -0.10000000149011612; 0.8080000281333923; 0.4300000071525574; 192.0; 0.0; 0.0; 0.0; 0.0; 0.0; 0.0; 0.0; 0.0; 0.0; 1.614586557136986E9; 2021-03-01 11:15:57.136
8.0; -65698.3046875; -66554.6640625; -125583.6484375; -72061.8671875; -72624.59375; -72625.53125; -75889.6015625; -76162.6484375; -0.10000000149011612; 0.8080000281333923; 0.4300000071525574; 192.0; 0.0; 0.0; 0.0; 0.0; 0.0; 0.0; 0.0; 0.0; 0.0; 1.6145865571369927E9; 2021-03-01 11:15:57.136
9.0; 44177.7734375; 44641.6640625; 40985.18359375; -53903.93359375; 97.09597778320312; 23725.2578125; -28719.576171875; 25334.806640625; -0.10000000149011612; 0.8080000281333923; 0.4300000071525574; 192.0; 0.0; 0.0; 0.0; 0.0; 0.0; 0.0; 0.0; 0.0; 0.0; 1.6145865571369994E9; 2021-03-01 11:15:57.136
10.0; -65617.03125; -66492.7265625; -125526.3203125; -71984.1015625; -72607.7578125; -72549.8515625; -75809.7421875; -76081.828125; -0.10000000149011612; 0.8080000281333923; 0.4300000071525574; 192.0; 0.0; 0.0; 0.0; 0.0; 0.0; 0.0; 0.0; 0.0; 0.0; 1.6145865571370063E9; 2021-03-01 11:15:57.137
11.0; 45530.92578125; 46009.7890625; 42362.1640625; -52497.765625; 1538.291748046875; 25122.30859375; -27311.662109375; 26734.8984375; -0.10000000149011612; 0.8080000281333923; 0.4300000071525574; 192.0; 0.0; 0.0; 0.0; 0.0; 0.0; 0.0; 0.0; 0.0; 0.0; 1.6145865571370127E9; 2021-03-01 11:15:57.137
12.0; -65680.8203125; -66544.765625; -125502.578125; -72047.4453125; -72613.1484375; -72607.9375; -75875.9921875; -76148.078125; -0.10000000149011612; 0.8080000281333923; 0.4300000071525574; 192.0; 0.0; 0.0; 0.0; 0.0; 0.0; 0.0; 0.0; 0.0; 0.0; 1.61458655713702E9; 2021-03-01 11:15:57.137
13.0; 44297.06640625; 44768.9765625; 41100.41015625; -53783.125; 270.2325744628906; 23831.5859375; -28587.1640625; 25438.296875; -0.10000000149011612; 0.8080000281333923; 0.4300000071525574; 192.0; 0.0; 0.0; 0.0; 0.0; 0.0; 0.0; 0.0; 0.0; 0.0; 1.6145865571370268E9; 2021-03-01 11:15:57.137
14.0; -65736.65625; -66609.3828125; -125471.578125; -72105.40625; -72661.140625; -72669.2734375; -75932.78125; -76203.6640625; -0.10000000149011612; 0.8080000281333923; 0.4300000071525574; 192.0; 0.0; 0.0; 0.0; 0.0; 0.0; 0.0; 0.0; 0.0; 0.0; 1.6145865571370332E9; 2021-03-01 11:15:57.137
15.0; 45390.22265625; 45855.00390625; 42187.59765625; -52696.2265625; 1170.9407958984375; 24906.79296875; -27541.728515625; 26488.89453125; -0.12200000882148743; 0.8500000238418579; 0.44200003147125244; 192.0; 252.0; 48.0; 26.0; 144.0; 13.0; 208.0; 0.0; 0.0; 0.0; 1.61458655713704E9; 2021-03-01 11:15:57.137
16.0; -65699.796875; -66574.1953125; -125427.390625; -72067.5234375; -72620.7890625; -72628.90625; -75894.921875; -76166.2265625; -0.12200000882148743; 0.8500000238418579; 0.44200003147125244; 192.0; 0.0; 0.0; 0.0; 0.0; 0.0; 0.0; 0.0; 0.0; 0.0; 1.6145865571370463E9; 2021-03-01 11:15:57.137
17.0; 44292.75; 44738.04296875; 41079.6875; -53818.99609375; 649.631103515625; 23801.0078125; -28604.732421875; 25401.908203125; -0.12200000882148743; 0.8500000238418579; 0.44200003147125244; 192.0; 0.0; 0.0; 0.0; 0.0; 0.0; 0.0; 0.0; 0.0; 0.0; 1.6145865571370528E9; 2021-03-01 11:15:57.137
18.0; -65891.734375; -66742.5546875; -125428.6640625; -72260.5703125; -72647.2109375; -72820.8828125; -76091.4609375; -76363.34375; -0.12200000882148743; 0.8500000238418579; 0.44200003147125244; 192.0; 0.0; 0.0; 0.0; 0.0; 0.0; 0.0; 0.0; 0.0; 0.0; 1.6145865571370595E9; 2021-03-01 11:15:57.137
19.0; 41024.27734375; 41454.05859375; 37832.0703125; -57083.046875; -2322.72607421875; 20521.560546875; -31906.935546875; 22100.15234375; -0.12200000882148743; 0.8500000238418579; 0.44200003147125244; 192.0; 0.0; 0.0; 0.0; 0.0; 0.0; 0.0; 0.0; 0.0; 0.0; 1.614586557137066E9; 2021-03-01 11:15:57.137
20.0; -65922.3125; -66793.421875; -125374.1484375; -72295.796875; -72669.921875; -72857.8515625; -76122.90625; -76393.9921875; -0.12200000882148743; 0.8500000238418579; 0.44200003147125244; 192.0; 0.0; 0.0; 0.0; 0.0; 0.0; 0.0; 0.0; 0.0; 0.0; 1.6145865571370723E9; 2021-03-01 11:15:57.137
21.0; 40493.42578125; 40939.02734375; 37350.078125; -57563.80859375; -2989.38916015625; 20036.796875; -32378.064453125; 21610.6484375; -0.12200000882148743; 0.8500000238418579; 0.44200003147125244; 192.0; 0.0; 0.0; 0.0; 0.0; 0.0; 0.0; 0.0; 0.0; 0.0; 1.614586557137079E9; 2021-03-01 11:15:57.137
22.0; -66001.9921875; -66879.4140625; -125364.515625; -72374.703125; -72723.3671875; -72932.6640625; -76200.046875; -76472.734375; -0.12200000882148743; 0.8500000238418579; 0.44200003147125244; 192.0; 0.0; 0.0; 0.0; 0.0; 0.0; 0.0; 0.0; 0.0; 0.0; 1.6145865571370857E9; 2021-03-01 11:15:57.137
23.0; 40270.5546875; 40737.7734375; 37111.3828125; -57784.2421875; -3134.31787109375; 19810.88671875; -32582.60546875; 21399.380859375; -0.12200000882148743; 0.8500000238418579; 0.44200003147125244; 192.0; 0.0; 0.0; 0.0; 0.0; 0.0; 0.0; 0.0; 0.0; 0.0; 1.6145865571370957E9; 2021-03-01 11:15:57.137
24.0; -66025.9140625; -66915.8671875; -125329.9140625; -72402.7265625; -72720.2109375; -72962.234375; -76223.8046875; -76495.6015625; -0.12200000882148743; 0.8500000238418579; 0.44200003147125244; 192.0; 0.0; 0.0; 0.0; 0.0; 0.0; 0.0; 0.0; 0.0; 0.0; 1.6145865571371021E9; 2021-03-01 11:15:57.137
25.0; 42531.859375; 42999.6796875; 39301.36328125; -55539.078125; -934.23583984375; 22053.81640625; -30360.373046875; 23643.2265625; -0.14800000190734863; 0.862000048160553; 0.42000001668930054; 192.0; 251.0; 96.0; 26.0; 240.0; 13.0; 32.0; 0.0; 0.0; 0.0; 1.6145865571371088E9; 2021-03-01 11:15:57.137
26.0; -65965.1171875; -66862.2890625; -125292.71875; -72340.5703125; -72696.2265625; -72895.9453125; -76159.9453125; -76431.875; -0.14800000190734863; 0.862000048160553; 0.42000001668930054; 192.0; 0.0; 0.0; 0.0; 0.0; 0.0; 0.0; 0.0; 0.0; 0.0; 1.6145865571371155E9; 2021-03-01 11:15:57.137
27.0; 43370.33984375; 43780.96484375; 40164.65234375; -54728.17578125; 13.388694763183594; 22877.0546875; -29508.146484375; 24495.72265625; -0.14800000190734863; 0.862000048160553; 0.42000001668930054; 192.0; 0.0; 0.0; 0.0; 0.0; 0.0; 0.0; 0.0; 0.0; 0.0; 1.614586557137122E9; 2021-03-01 11:15:57.137
28.0; -66055.328125; -66946.8046875; -125306.2421875; -72432.140625; -72766.2109375; -72985.53125; -76250.578125; -76522.984375; -0.14800000190734863; 0.862000048160553; 0.42000001668930054; 192.0; 0.0; 0.0; 0.0; 0.0; 0.0; 0.0; 0.0; 0.0; 0.0; 1.6145865571371284E9; 2021-03-01 11:15:57.137
29.0; 44625.4140625; 45067.93359375; 41516.28515625; -53412.1953125; 1116.1566162109375; 24185.16796875; -28239.595703125; 25765.837890625; -0.14800000190734863; 0.862000048160553; 0.42000001668930054; 192.0; 0.0; 0.0; 0.0; 0.0; 0.0; 0.0; 0.0; 0.0; 0.0; 1.6145865571371353E9; 2021-03-01 11:15:57.137
30.0; -66037.0390625; -66917.765625; -125256.828125; -72414.5078125; -72768.71875; -72966.4609375; -76234.421875; -76506.796875; -0.14800000190734863; 0.862000048160553; 0.42000001668930054; 192.0; 0.0; 0.0; 0.0; 0.0; 0.0; 0.0; 0.0; 0.0; 0.0; 1.6145865571371417E9; 2021-03-01 11:15:57.137
31.0; 38199.3515625; 38664.046875; 35074.578125; -59909.9609375; -4796.25927734375; 17719.1875; -34658.14453125; 19310.431640625; -0.14800000190734863; 0.862000048160553; 0.42000001668930054; 192.0; 0.0; 0.0; 0.0; 0.0; 0.0; 0.0; 0.0; 0.0; 0.0; 1.6145865571371484E9; 2021-03-01 11:15:57.137
32.0; -66505.578125; -67314.46875; -125255.328125; -72878.125; -72903.6953125; -73425.2578125; -76708.96875; -76983.359375; -0.14800000190734863; 0.862000048160553; 0.42000001668930054; 192.0; 0.0; 0.0; 0.0; 0.0; 0.0; 0.0; 0.0; 0.0; 0.0; 1.6145865571371548E9; 2021-03-01 11:15:57.137
33.0; 24063.439453125; 24549.2109375; 21043.8984375; -73876.2421875; -18688.94140625; 3592.372314453125; -48767.90625; 5206.4140625; -0.14800000190734863; 0.862000048160553; 0.42000001668930054; 192.0; 0.0; 0.0; 0.0; 0.0; 0.0; 0.0; 0.0; 0.0; 0.0; 1.6145865571371615E9; 2021-03-01 11:15:57.137
34.0; -66869.015625; -67692.96875; -125236.59375; -73246.7734375; -73134.4609375; -73801.859375; -77075.3203125; -77347.625; -0.14800000190734863; 0.862000048160553; 0.42000001668930054; 192.0; 0.0; 0.0; 0.0; 0.0; 0.0; 0.0; 0.0; 0.0; 0.0; 1.614586557137168E9; 2021-03-01 11:15:57.137
35.0; 16075.4189453125; 16458.68359375; 13036.185546875; -77776.8046875; -26797.52734375; -4457.02685546875; -56833.19921875; -2859.927978515625; -0.1080000028014183; 0.8820000290870667; 0.37800002098083496; 192.0; 252.0; 160.0; 27.0; 144.0; 11.0; 208.0; 0.0; 0.0; 0.0; 1.6145865571371744E9; 2021-03-01 11:15:57.137
36.0; -67063.28125; -67901.9609375; -125199.46875; -73442.5546875; -73368.28125; -73995.7578125; -77268.96875; -77541.890625; -0.1080000028014183; 0.8820000290870667; 0.37800002098083496; 192.0; 0.0; 0.0; 0.0; 0.0; 0.0; 0.0; 0.0; 0.0; 0.0; 1.6145865571371813E9; 2021-03-01 11:15:57.137
37.0; 8910.9697265625; 9291.7763671875; 5909.845703125; -78063.84375; -33736.60546875; -11616.3349609375; -63956.80859375; -10001.01953125; -0.1080000028014183; 0.8820000290870667; 0.37800002098083496; 192.0; 0.0; 0.0; 0.0; 0.0; 0.0; 0.0; 0.0; 0.0; 0.0; 1.6145865571371875E9; 2021-03-01 11:15:57.137
38.0; -67330.3828125; -68179.34375; -125202.890625; -73713.3671875; -73656.4609375; -74266.5703125; -77538.3125; -77809.953125; -0.1080000028014183; 0.8820000290870667; 0.37800002098083496; 192.0; 0.0; 0.0; 0.0; 0.0; 0.0; 0.0; 0.0; 0.0; 0.0; 1.6145865571371944E9; 2021-03-01 11:15:57.137
39.0; 4937.00830078125; 5361.44580078125; 1982.554931640625; -78214.921875; -37868.2109375; -15561.3505859375; -67583.421875; -13955.35546875; -0.1080000028014183; 0.8820000290870667; 0.37800002098083496; 192.0; 0.0; 0.0; 0.0; 0.0; 0.0; 0.0; 0.0; 0.0; 0.0; 1.6145865571372008E9; 2021-03-01 11:15:57.137
40.0; -67349.734375; -68227.3984375; -125147.4375; -73737.3984375; -73830.828125; -74292.2578125; -77556.8203125; -77826.984375; -0.1080000028014183; 0.8820000290870667; 0.37800002098083496; 192.0; 0.0; 0.0; 0.0; 0.0; 0.0; 0.0; 0.0; 0.0; 0.0; 1.6145865571372073E9; 2021-03-01 11:15:57.137
41.0; 4158.6982421875; 4601.3076171875; 1240.924072265625; -78214.09375; -38663.95703125; -16302.5576171875; -68148.5703125; -14688.3369140625; -0.1080000028014183; 0.8820000290870667; 0.37800002098083496; 192.0; 0.0; 0.0; 0.0; 0.0; 0.0; 0.0; 0.0; 0.0; 0.0; 1.614586557137214E9; 2021-03-01 11:15:57.137
42.0; -67429.21875; -68305.0546875; -125132.1875; -73814.8671875; -73965.359375; -74365.390625; -77633.28125; -77904.4765625; -0.1080000028014183; 0.8820000290870667; 0.37800002098083496; 192.0; 0.0; 0.0; 0.0; 0.0; 0.0; 0.0; 0.0; 0.0; 0.0; 1.6145865571372204E9; 2021-03-01 11:15:57.137
43.0; 2841.46533203125; 3278.48681640625; -66.40702819824219; -78327.6875; -40011.05078125; -17638.07421875; -69176.4375; -15996.31640625; -0.1080000028014183; 0.8820000290870667; 0.37800002098083496; 192.0; 0.0; 0.0; 0.0; 0.0; 0.0; 0.0; 0.0; 0.0; 0.0; 1.6145865571372273E9; 2021-03-01 11:15:57.137
44.0; -67462.6796875; -68350.0859375; -125089.1640625; -73852.21875; -74071.734375; -74401.734375; -77666.8125; -77936.2421875; -0.1080000028014183; 0.8820000290870667; 0.37800002098083496; 192.0; 0.0; 0.0; 0.0; 0.0; 0.0; 0.0; 0.0; 0.0; 0.0; 1.6145865571372335E9; 2021-03-01 11:15:57.137
45.0; 3825.59033203125; 4274.4580078125; 931.330078125; -78263.375; -39232.5859375; -16628.310546875; -68424.65625; -15031.9951171875; -0.11600000411272049; 0.8920000195503235; 0.3960000276565552; 192.0; 252.0; 96.0; 27.0; 224.0; 12.0; 96.0; 0.0; 0.0; 0.0; 1.6145865571372402E9; 2021-03-01 11:15:57.137
46.0; -67433.625; -68322.3515625; -125039.6796875; -73821.7265625; -74104.1015625; -74366.796875; -77636.1640625; -77906.2890625; -0.11600000411272049; 0.8920000195503235; 0.3960000276565552; 192.0; 0.0; 0.0; 0.0; 0.0; 0.0; 0.0; 0.0; 0.0; 0.0; 1.6145865571372468E9; 2021-03-01 11:15:57.137
47.0; 1664.8919677734375; 2089.44091796875; -1213.4315185546875; -78368.8984375; -41239.0546875; -18818.447265625; -70394.71875; -17197.923828125; -0.11600000411272049; 0.8920000195503235; 0.3960000276565552; 192.0; 0.0; 0.0; 0.0; 0.0; 0.0; 0.0; 0.0; 0.0; 0.0; 1.6145865571372561E9; 2021-03-01 11:15:57.137
48.0; -67597.6171875; -68481.046875; -125043.34375; -73986.7109375; -74220.5546875; -74530.7265625; -77801.90625; -78072.609375; -0.11600000411272049; 0.8920000195503235; 0.3960000276565552; 192.0; 0.0; 0.0; 0.0; 0.0; 0.0; 0.0; 0.0; 0.0; 0.0; 1.6145865571372633E9; 2021-03-01 11:15:57.137
49.0; -257.7156066894531; 176.98110961914062; -3073.18603515625; -78456.03125; -43325.50390625; -20733.41015625; -72322.484375; -19122.140625; -0.11600000411272049; 0.8920000195503235; 0.3960000276565552; 192.0; 0.0; 0.0; 0.0; 0.0; 0.0; 0.0; 0.0; 0.0; 0.0; 1.61458655713727E9; 2021-03-01 11:15:57.137
50.0; -67587.265625; -68481.71875; -124993.8125; -73979.3125; -74315.90625; -74525.65625; -77791.9375; -78061.296875; -0.11600000411272049; 0.8920000195503235; 0.3960000276565552; 192.0; 0.0; 0.0; 0.0; 0.0; 0.0; 0.0; 0.0; 0.0; 0.0; 1.6145865571372766E9; 2021-03-01 11:15:57.137
51.0; -1404.40478515625; -974.916015625; -4188.068359375; -78460.3203125; -44386.4296875; -21873.169921875; -73467.2109375; -20260.447265625; -0.11600000411272049; 0.8920000195503235; 0.3960000276565552; 192.0; 0.0; 0.0; 0.0; 0.0; 0.0; 0.0; 0.0; 0.0; 0.0; 1.614586557137283E9; 2021-03-01 11:15:57.137
52.0; -67702.8046875; -68583.3515625; -124979.3046875; -74092.703125; -74418.453125; -74633.234375; -77907.453125; -78178.578125; -0.11600000411272049; 0.8920000195503235; 0.3960000276565552; 192.0; 0.0; 0.0; 0.0; 0.0; 0.0; 0.0; 0.0; 0.0; 0.0; 1.6145865571372895E9; 2021-03-01 11:15:57.137
53.0; -5409.0771484375; -4972.97216796875; -8157.02294921875; -78654.0625; -48229.72265625; -25885.3984375; -76312.0078125; -24265.119140625; -0.11600000411272049; 0.8920000195503235; 0.3960000276565552; 192.0; 0.0; 0.0; 0.0; 0.0; 0.0; 0.0; 0.0; 0.0; 0.0; 1.6145865571372964E9; 2021-03-01 11:15:57.137
54.0; -67843.9765625; -68728.59375; -124954.9609375; -74236.0; -74531.1328125; -74780.6875; -78049.2265625; -78320.0625; -0.10400000214576721; 0.8980000615119934; 0.41200003027915955; 192.0; 252.0; 192.0; 28.0; 16.0; 12.0; 224.0; 0.0; 0.0; 0.0; 1.6145865571373029E9; 2021-03-01 11:15:57.137
55.0; -8033.373046875; -7565.439453125; -10770.4560546875; -78698.140625; -51027.95703125; -28518.365234375; -76624.234375; -26892.8125; -0.10400000214576721; 0.8980000615119934; 0.41200003027915955; 192.0; 0.0; 0.0; 0.0; 0.0; 0.0; 0.0; 0.0; 0.0; 0.0; 1.6145865571373093E9; 2021-03-01 11:15:57.137
56.0; -67895.1015625; -68784.453125; -124914.328125; -74287.984375; -74606.40625; -74830.265625; -78100.2578125; -78372.2109375; -0.10400000214576721; 0.8980000615119934; 0.41200003027915955; 192.0; 0.0; 0.0; 0.0; 0.0; 0.0; 0.0; 0.0; 0.0; 0.0; 1.614586557137316E9; 2021-03-01 11:15:57.137
57.0; -12111.5830078125; -11673.17578125; -14847.2353515625; -78856.2109375; -55045.03515625; -32628.60546875; -76779.890625; -30960.62890625; -0.10400000214576721; 0.8980000615119934; 0.41200003027915955; 192.0; 0.0; 0.0; 0.0; 0.0; 0.0; 0.0; 0.0; 0.0; 0.0; 1.6145865571373224E9; 2021-03-01 11:15:57.137
58.0; -68105.515625; -68985.1953125; -124921.0546875; -74496.4375; -74757.84375; -75037.0390625; -78309.0859375; -78581.46875; -0.10400000214576721; 0.8980000615119934; 0.41200003027915955; 192.0; 0.0; 0.0; 0.0; 0.0; 0.0; 0.0; 0.0; 0.0; 0.0; 1.614586557137329E9; 2021-03-01 11:15:57.137
59.0; -15546.4873046875; -15105.6435546875; -18242.64453125; -78986.0546875; -58703.63671875; -36033.1796875; -76913.890625; -34422.06640625; -0.10400000214576721; 0.8980000615119934; 0.41200003027915955; 192.0; 0.0; 0.0; 0.0; 0.0; 0.0; 0.0; 0.0; 0.0; 0.0; 1.6145865571373355E9; 2021-03-01 11:15:57.137
60.0; -68121.71875; -69019.28125; -124867.3671875; -74515.953125; -74854.265625; -75058.1796875; -78324.78125; -78595.9921875; -0.10400000214576721; 0.8980000615119934; 0.41200003027915955; 192.0; 0.0; 0.0; 0.0; 0.0; 0.0; 0.0; 0.0; 0.0; 0.0; 1.614586557137342E9; 2021-03-01 11:15:57.137
61.0; -16843.625; -16377.0556640625; -19498.119140625; -78988.8046875; -59982.66796875; -37281.5234375; -76916.0390625; -35677.02734375; -0.10400000214576721; 0.8980000615119934; 0.41200003027915955; 192.0; 0.0; 0.0; 0.0; 0.0; 0.0; 0.0; 0.0; 0.0; 0.0; 1.6145865571373487E9; 2021-03-01 11:15:57.137
62.0; -68211.3984375; -69103.65625; -124855.078125; -74602.40625; -74940.3203125; -75138.8046875; -78411.484375; -78683.546875; -0.10400000214576721; 0.8980000615119934; 0.41200003027915955; 192.0; 0.0; 0.0; 0.0; 0.0; 0.0; 0.0; 0.0; 0.0; 0.0; 1.614586557137355E9; 2021-03-01 11:15:57.137
63.0; -18855.685546875; -18407.7109375; -21492.67578125; -79120.7890625; -61995.265625; -39318.953125; -77046.7734375; -37692.4375; -0.10400000214576721; 0.8980000615119934; 0.41200003027915955; 192.0; 0.0; 0.0; 0.0; 0.0; 0.0; 0.0; 0.0; 0.0; 0.0; 1.6145865571373618E9; 2021-03-01 11:15:57.137
64.0; -68269.0234375; -69172.7890625; -124828.7421875; -74662.0859375; -75035.25; -75201.703125; -78468.703125; -78739.4921875; -0.09400000423192978; 0.8920000195503235; 0.4100000262260437; 192.0; 253.0; 16.0; 27.0; 224.0; 12.0; 208.0; 0.0; 0.0; 0.0; 1.6145865571373684E9; 2021-03-01 11:15:57.137
65.0; -18416.33984375; -17955.177734375; -21011.17578125; -79072.671875; -61657.8671875; -38882.3984375; -77001.6484375; -37257.0703125; -0.09400000423192978; 0.8920000195503235; 0.4100000262260437; 192.0; 0.0; 0.0; 0.0; 0.0; 0.0; 0.0; 0.0; 0.0; 0.0; 1.614586557137375E9; 2021-03-01 11:15:57.137
66.0; -68224.3203125; -69136.3828125; -124785.71875; -74618.5703125; -75059.1015625; -75156.125; -78422.96875; -78695.3671875; -0.09400000423192978; 0.8920000195503235; 0.4100000262260437; 192.0; 0.0; 0.0; 0.0; 0.0; 0.0; 0.0; 0.0; 0.0; 0.0; 1.6145865571373816E9; 2021-03-01 11:15:57.137
67.0; -19140.357421875; -18705.236328125; -21707.38671875; -79132.546875; -62125.28515625; -39617.234375; -77057.2109375; -37966.203125; -0.09400000423192978; 0.8920000195503235; 0.4100000262260437; 192.0; 0.0; 0.0; 0.0; 0.0; 0.0; 0.0; 0.0; 0.0; 0.0; 1.6145865571373887E9; 2021-03-01 11:15:57.137
68.0; -68343.6328125; -69246.640625; -124791.4140625; -74736.140625; -75136.7265625; -75271.484375; -78540.828125; -78813.765625; -0.09400000423192978; 0.8920000195503235; 0.4100000262260437; 192.0; 0.0; 0.0; 0.0; 0.0; 0.0; 0.0; 0.0; 0.0; 0.0; 1.6145865571373951E9; 2021-03-01 11:15:57.137
69.0; -19932.771484375; -19477.80078125; -22460.037109375; -79187.6484375; -63025.12109375; -40406.54296875; -77113.828125; -38764.8984375; -0.09400000423192978; 0.8920000195503235; 0.4100000262260437; 192.0; 0.0; 0.0; 0.0; 0.0; 0.0; 0.0; 0.0; 0.0; 0.0; 1.6145865571374016E9; 2021-03-01 11:15:57.137
70.0; -68303.375; -69219.125; -124743.3359375; -74699.484375; -75166.8125; -75236.015625; -78499.703125; -78771.765625; -0.09400000423192978; 0.8920000195503235; 0.4100000262260437; 192.0; 0.0; 0.0; 0.0; 0.0; 0.0; 0.0; 0.0; 0.0; 0.0; 1.614586557137411E9; 2021-03-01 11:15:57.137
71.0; -19372.748046875; -18948.623046875; -21856.31640625; -79140.2578125; -62459.80078125; -39820.703125; -77066.4453125; -38170.33984375; -0.09400000423192978; 0.8920000195503235; 0.4100000262260437; 192.0; 0.0; 0.0; 0.0; 0.0; 0.0; 0.0; 0.0; 0.0; 0.0; 1.6145865571374185E9; 2021-03-01 11:15:57.137
72.0; -68338.421875; -69252.4296875; -124737.7265625; -74733.5; -75205.28125; -75266.5234375; -78533.609375; -78806.6796875; -0.09400000423192978; 0.8920000195503235; 0.4100000262260437; 192.0; 0.0; 0.0; 0.0; 0.0; 0.0; 0.0; 0.0; 0.0; 0.0; 1.614586557137425E9; 2021-03-01 11:15:57.137
73.0; -19456.478515625; -19010.76171875; -21907.033203125; -79220.5; -62445.2734375; -39927.58984375; -77146.0390625; -38258.3828125; -0.09400000423192978; 0.8920000195503235; 0.4100000262260437; 192.0; 0.0; 0.0; 0.0; 0.0; 0.0; 0.0; 0.0; 0.0; 0.0; 1.6145865571374316E9; 2021-03-01 11:15:57.137
74.0; -68355.6328125; -69277.421875; -124717.2734375; -74755.0078125; -75255.8828125; -75288.875; -78552.4765625; -78824.140625; -0.0860000029206276; 0.8920000195503235; 0.4020000100135803; 192.0; 253.0; 80.0; 27.0; 224.0; 12.0; 144.0; 0.0; 0.0; 0.0; 1.6145865571374383E9; 2021-03-01 11:15:57.137
75.0; -18168.861328125; -17722.00390625; -20602.228515625; -79151.5234375; -61385.98046875; -38604.90234375; -77079.203125; -36961.2890625; -0.0860000029206276; 0.8920000195503235; 0.4020000100135803; 192.0; 0.0; 0.0; 0.0; 0.0; 0.0; 0.0; 0.0; 0.0; 0.0; 1.6145865571374447E9; 2021-03-01 11:15:57.137
76.0; -68300.1328125; -69221.3125; -124677.53125; -74696.78125; -75262.703125; -75226.3828125; -78493.625; -78765.328125; -0.0860000029206276; 0.8920000195503235; 0.4020000100135803; 192.0; 0.0; 0.0; 0.0; 0.0; 0.0; 0.0; 0.0; 0.0; 0.0; 1.6145865571374516E9; 2021-03-01 11:15:57.137
77.0; -18321.724609375; -17874.509765625; -20737.076171875; -79194.9296875; -61163.22265625; -38760.31640625; -77119.796875; -37123.1171875; -0.0860000029206276; 0.8920000195503235; 0.4020000100135803; 192.0; 0.0; 0.0; 0.0; 0.0; 0.0; 0.0; 0.0; 0.0; 0.0; 1.614586557137458E9; 2021-03-01 11:15:57.137
78.0; -68422.6015625; -69330.703125; -124680.015625; -74817.7890625; -75306.1328125; -75345.0703125; -78615.6640625; -78887.4375; -0.0860000029206276; 0.8920000195503235; 0.4020000100135803; 192.0; 0.0; 0.0; 0.0; 0.0; 0.0; 0.0; 0.0; 0.0; 0.0; 1.6145865571374648E9; 2021-03-01 11:15:57.137
79.0; -20075.912109375; -19628.228515625; -22489.744140625; -79290.328125; -62344.9375; -40527.53515625; -77214.8828125; -38863.265625; -0.0860000029206276; 0.8920000195503235; 0.4020000100135803; 192.0; 0.0; 0.0; 0.0; 0.0; 0.0; 0.0; 0.0; 0.0; 0.0; 1.6145865571374712E9; 2021-03-01 11:15:57.137
80.0; -68441.3046875; -69359.2265625; -124627.2421875; -74842.3984375; -75288.0703125; -75371.0390625; -78638.265625; -78908.875; -0.0860000029206276; 0.8920000195503235; 0.4020000100135803; 192.0; 0.0; 0.0; 0.0; 0.0; 0.0; 0.0; 0.0; 0.0; 0.0; 1.6145865571374779E9; 2021-03-01 11:15:57.137
81.0; -21435.859375; -20964.28125; -23815.939453125; -79299.5625; -63553.91796875; -41867.3203125; -77225.0078125; -40215.75; -0.0860000029206276; 0.8920000195503235; 0.4020000100135803; 192.0; 0.0; 0.0; 0.0; 0.0; 0.0; 0.0; 0.0; 0.0; 0.0; 1.6145865571374843E9; 2021-03-01 11:15:57.137
82.0; -68500.25; -69422.4140625; -124611.171875; -74898.9921875; -75325.6875; -75424.6640625; -78693.875; -78964.5546875; -0.0860000029206276; 0.8920000195503235; 0.4020000100135803; 192.0; 0.0; 0.0; 0.0; 0.0; 0.0; 0.0; 0.0; 0.0; 0.0; 1.6145865571374924E9; 2021-03-01 11:15:57.137
83.0; -21370.255859375; -20891.99609375; -23702.75; -79365.2734375; -63744.78125; -41789.37890625; -77291.6171875; -40130.27734375; -0.0860000029206276; 0.8920000195503235; 0.4020000100135803; 192.0; 0.0; 0.0; 0.0; 0.0; 0.0; 0.0; 0.0; 0.0; 0.0; 1.6145865571374993E9; 2021-03-01 11:15:57.137
84.0; -68492.828125; -69429.703125; -124589.78125; -74896.3125; -75398.6484375; -75424.8671875; -78688.3984375; -78957.6484375; -0.09000000357627869; 0.9240000247955322; 0.3720000088214874; 192.0; 253.0; 48.0; 28.0; 224.0; 11.0; 160.0; 0.0; 0.0; 0.0; 1.614586557137506E9; 2021-03-01 11:15:57.137
85.0; -19746.3359375; -19268.38671875; -22105.673828125; -79284.921875; -62333.44921875; -40171.3125; -77213.40625; -38529.1328125; -0.09000000357627869; 0.9240000247955322; 0.3720000088214874; 192.0; 0.0; 0.0; 0.0; 0.0; 0.0; 0.0; 0.0; 0.0; 0.0; 1.6145865571375127E9; 2021-03-01 11:15:57.137
86.0; -68443.1640625; -69380.5078125; -124546.2421875; -74847.5390625; -75438.0546875; -75372.671875; -78639.71875; -78909.390625; -0.09000000357627869; 0.9240000247955322; 0.3720000088214874; 192.0; 0.0; 0.0; 0.0; 0.0; 0.0; 0.0; 0.0; 0.0; 0.0; 1.6145865571375191E9; 2021-03-01 11:15:57.137
87.0; -20923.802734375; -20460.919921875; -23223.439453125; -79351.0625; -63307.6484375; -41328.0390625; -77276.03125; -39682.66015625; -0.09000000357627869; 0.9240000247955322; 0.3720000088214874; 192.0; 0.0; 0.0; 0.0; 0.0; 0.0; 0.0; 0.0; 0.0; 0.0; 1.6145865571375258E9; 2021-03-01 11:15:57.137
88.0; -68563.3515625; -69510.03125; -124544.7421875; -74968.265625; -75578.84375; -75490.9765625; -78760.3671875; -79030.359375; -0.09000000357627869; 0.9240000247955322; 0.3720000088214874; 192.0; 0.0; 0.0; 0.0; 0.0; 0.0; 0.0; 0.0; 0.0; 0.0; 1.6145865571375325E9; 2021-03-01 11:15:57.137
89.0; -20882.765625; -20349.33984375; -23065.14453125; -79379.3125; -63359.34765625; -41229.734375; -77310.03125; -39586.76953125; -0.09000000357627869; 0.9240000247955322; 0.3720000088214874; 192.0; 0.0; 0.0; 0.0; 0.0; 0.0; 0.0; 0.0; 0.0; 0.0; 1.614586557137539E9; 2021-03-01 11:15:57.137
90.0; -68448.7734375; -69410.7890625; -124485.2421875; -74857.0390625; -75583.046875; -75384.3828125; -78643.5625; -78911.2421875; -0.09000000357627869; 0.9240000247955322; 0.3720000088214874; 192.0; 0.0; 0.0; 0.0; 0.0; 0.0; 0.0; 0.0; 0.0; 0.0; 1.6145865571375456E9; 2021-03-01 11:15:57.137
91.0; -16616.666015625; -16166.591796875; -18911.98828125; -79218.7109375; -59304.8515625; -37031.54296875; -77148.5390625; -35381.8046875; -0.09000000357627869; 0.9240000247955322; 0.3720000088214874; 192.0; 0.0; 0.0; 0.0; 0.0; 0.0; 0.0; 0.0; 0.0; 0.0; 1.614586557137552E9; 2021-03-01 11:15:57.137
92.0; -68375.9765625; -69339.375; -124473.484375; -74781.2890625; -75556.0234375; -75302.15625; -78567.2734375; -78836.9453125; -0.09000000357627869; 0.9240000247955322; 0.3720000088214874; 192.0; 0.0; 0.0; 0.0; 0.0; 0.0; 0.0; 0.0; 0.0; 0.0; 1.6145865571375587E9; 2021-03-01 11:15:57.137
93.0; -14176.1240234375; -13759.912109375; -16480.25390625; -79221.6640625; -56945.37890625; -34634.296875; -77150.28125; -32969.625; -0.10000000149011612; 0.9260000586509705; 0.4140000343322754; 192.0; 252.0; 224.0; 28.0; 240.0; 12.0; 240.0; 0.0; 0.0; 0.0; 1.6145865571375687E9; 2021-03-01 11:15:57.137
94.0; -68359.2578125; -69323.171875; -124462.21875; -74767.921875; -75567.3984375; -75289.03125; -78552.9453125; -78822.0390625; -0.10000000149011612; 0.9260000586509705; 0.4140000343322754; 192.0; 0.0; 0.0; 0.0; 0.0; 0.0; 0.0; 0.0; 0.0; 0.0; 1.6145865571375756E9; 2021-03-01 11:15:57.137
95.0; -13322.3544921875; -12942.4638671875; -15691.9970703125; -79167.4609375; -56217.5625; -33830.7734375; -77096.53125; -32175.24609375; -0.10000000149011612; 0.9260000586509705; 0.4140000343322754; 192.0; 0.0; 0.0; 0.0; 0.0; 0.0; 0.0; 0.0; 0.0; 0.0; 1.6145865571375823E9; 2021-03-01 11:15:57.137
96.0; -68364.53125; -69310.765625; -124431.6875; -74772.3515625; -75535.796875; -75288.4921875; -78558.84375; -78828.2265625; -0.10000000149011612; 0.9260000586509705; 0.4140000343322754; 192.0; 0.0; 0.0; 0.0; 0.0; 0.0; 0.0; 0.0; 0.0; 0.0; 1.6145865571375887E9; 2021-03-01 11:15:57.137
97.0; -17060.86328125; -16685.5546875; -19421.900390625; -79311.71875; -59724.9765625; -37564.1171875; -77236.5390625; -35910.421875; -0.10000000149011612; 0.9260000586509705; 0.4140000343322754; 192.0; 0.0; 0.0; 0.0; 0.0; 0.0; 0.0; 0.0; 0.0; 0.0; 1.6145865571375954E9; 2021-03-01 11:15:57.137
98.0; -68566.40625; -69496.8046875; -124441.2109375; -74974.609375; -75629.8984375; -75490.78125; -78763.1640625; -79032.2578125; -0.10000000149011612; 0.9260000586509705; 0.4140000343322754; 192.0; 0.0; 0.0; 0.0; 0.0; 0.0; 0.0; 0.0; 0.0; 0.0; 1.614586557137602E9; 2021-03-01 11:15:57.137
99.0; -19870.6328125; -19473.6875; -22173.533203125; -79428.6640625; -62767.25; -40356.54296875; -77357.1953125; -38726.4296875; -0.10000000149011612; 0.9260000586509705; 0.4140000343322754; 192.0; 0.0; 0.0; 0.0; 0.0; 0.0; 0.0; 0.0; 0.0; 0.0; 1.6145865571376088E9; 2021-03-01 11:15:57.137
100.0; -68560.7109375; -69501.203125; -124391.3671875; -74971.2109375; -75661.28125; -75490.6015625; -78756.03125; -79023.1796875; -0.10000000149011612; 0.9260000586509705; 0.4140000343322754; 192.0; 0.0; 0.0; 0.0; 0.0; 0.0; 0.0; 0.0; 0.0; 0.0; 1.6145865571376152E9; 2021-03-01 11:15:57.137
101.0; -19351.46875; -18949.763671875; -21640.17578125; -79382.5078125; -62301.84375; -39801.28125; -77311.75; -38178.38671875; -0.10000000149011612; 0.9260000586509705; 0.4140000343322754; 192.0; 0.0; 0.0; 0.0; 0.0; 0.0; 0.0; 0.0; 0.0; 0.0; 1.614586557137622E9; 2021-03-01 11:15:57.137
102.0; -68578.8828125; -69516.1328125; -124384.34375; -74986.703125; -75636.21875; -75501.265625; -78770.3359375; -79038.71875; -0.10000000149011612; 0.9260000586509705; 0.4140000343322754; 192.0; 0.0; 0.0; 0.0; 0.0; 0.0; 0.0; 0.0; 0.0; 0.0; 1.6145865571376288E9; 2021-03-01 11:15:57.137
103.0; -18822.291015625; -18445.5078125; -21152.259765625; -79449.96875; -61790.65625; -39315.8671875; -77378.96875; -37696.10546875; -0.09600000083446503; 0.9120000600814819; 0.4320000112056732; 192.0; 253.0; 0.0; 28.0; 128.0; 13.0; 128.0; 0.0; 0.0; 0.0; 1.6145865571376355E9; 2021-03-01 11:15:57.137
104.0; -68580.515625; -69522.375; -124367.0; -74990.390625; -75601.328125; -75506.9609375; -78770.8515625; -79038.984375; -0.09600000083446503; 0.9120000600814819; 0.4320000112056732; 192.0; 0.0; 0.0; 0.0; 0.0; 0.0; 0.0; 0.0; 0.0; 0.0; 1.614586557137642E9; 2021-03-01 11:15:57.137
105.0; -15610.546875; -15178.9345703125; -17896.03515625; -79332.9765625; -58678.06640625; -36050.94921875; -77264.4375; -34450.69921875; -0.09600000083446503; 0.9120000600814819; 0.4320000112056732; 192.0; 0.0; 0.0; 0.0; 0.0; 0.0; 0.0; 0.0; 0.0; 0.0; 1.6145865571376488E9; 2021-03-01 11:15:57.137
106.0; -68470.6796875; -69410.90625; -124312.4375; -74880.53125; -75486.734375; -75393.90625; -78658.3359375; -78927.875; -0.09600000083446503; 0.9120000600814819; 0.4320000112056732; 192.0; 0.0; 0.0; 0.0; 0.0; 0.0; 0.0; 0.0; 0.0; 0.0; 1.6145865571376555E9; 2021-03-01 11:15:57.137
107.0; -14792.048828125; -14374.8310546875; -17095.865234375; -79352.375; -57815.6015625; -35254.80078125; -77281.1328125; -33635.28515625; -0.09600000083446503; 0.9120000600814819; 0.4320000112056732; 192.0; 0.0; 0.0; 0.0; 0.0; 0.0; 0.0; 0.0; 0.0; 0.0; 1.6145865576167777E9; 2021-03-01 11:15:57.616
108.0; -68555.4765625; -69486.8515625; -124310.5625; -74965.9140625; -75450.0546875; -75477.125; -78743.6484375; -79012.5859375; -0.09600000083446503; 0.9120000600814819; 0.4320000112056732; 192.0; 0.0; 0.0; 0.0; 0.0; 0.0; 0.0; 0.0; 0.0; 0.0; 1.6145865576171007E9; 2021-03-01 11:15:57.617
109.0; -12655.4453125; -12218.3798828125; -14935.501953125; -79337.875; -55637.37890625; -33100.51953125; -77269.6015625; -31495.73046875; -0.09600000083446503; 0.9120000600814819; 0.4320000112056732; 192.0; 0.0; 0.0; 0.0; 0.0; 0.0; 0.0; 0.0; 0.0; 0.0; 1.6145865576171074E9; 2021-03-01 11:15:57.617
110.0; -68429.53125; -69378.09375; -124255.0859375; -74842.625; -75377.078125; -75355.8828125; -78615.84375; -78883.90625; -0.09600000083446503; 0.9120000600814819; 0.4320000112056732; 192.0; 0.0; 0.0; 0.0; 0.0; 0.0; 0.0; 0.0; 0.0; 0.0; 1.614586557617114E9; 2021-03-01 11:15:57.617
111.0; -9933.5400390625; -9518.6015625; -12220.4130859375; -79236.4609375; -52728.9921875; -30382.880859375; -77166.890625; -28784.888671875; -0.09600000083446503; 0.9120000600814819; 0.4320000112056732; 192.0; 0.0; 0.0; 0.0; 0.0; 0.0; 0.0; 0.0; 0.0; 0.0; 1.6145865576171205E9; 2021-03-01 11:15:57.617
112.0; -68445.1953125; -69382.453125; -124248.15625; -74857.4609375; -75347.1015625; -75364.3359375; -78632.046875; -78900.9140625; -0.09600000083446503; 0.9120000600814819; 0.4320000112056732; 192.0; 0.0; 0.0; 0.0; 0.0; 0.0; 0.0; 0.0; 0.0; 0.0; 1.6145865576171267E9; 2021-03-01 11:15:57.617
113.0; -9630.2490234375; -9231.6728515625; -11953.01953125; -79315.7890625; -52371.20703125; -30116.671875; -77244.7421875; -28497.7578125; -0.05400000140070915; 0.9180000424385071; 0.3960000276565552; 192.0; 254.0; 80.0; 28.0; 176.0; 12.0; 96.0; 0.0; 0.0; 0.0; 1.6145865576171334E9; 2021-03-01 11:15:57.617
114.0; -68473.6484375; -69415.1953125; -124229.15625; -74894.234375; -75336.0390625; -75402.0; -78666.09375; -78934.2421875; -0.05400000140070915; 0.9180000424385071; 0.3960000276565552; 192.0; 0.0; 0.0; 0.0; 0.0; 0.0; 0.0; 0.0; 0.0; 0.0; 1.6145865576171398E9; 2021-03-01 11:15:57.617
115.0; -8925.140625; -8510.650390625; -11255.7568359375; -79278.0546875; -51791.6484375; -29416.525390625; -77207.3515625; -27797.8125; -0.05400000140070915; 0.9180000424385071; 0.3960000276565552; 192.0; 0.0; 0.0; 0.0; 0.0; 0.0; 0.0; 0.0; 0.0; 0.0; 1.6145865576171463E9; 2021-03-01 11:15:57.617
116.0; -68448.0390625; -69388.2421875; -124184.7421875; -74868.1015625; -75297.8828125; -75372.765625; -78639.1328125; -78907.0; -0.05400000140070915; 0.9180000424385071; 0.3960000276565552; 192.0; 0.0; 0.0; 0.0; 0.0; 0.0; 0.0; 0.0; 0.0; 0.0; 1.6145865576171527E9; 2021-03-01 11:15:57.617
117.0; -9530.42578125; -9117.5224609375; -11830.8671875; -79336.109375; -52251.78125; -29999.884765625; -77262.4921875; -28356.2265625; -0.05400000140070915; 0.9180000424385071; 0.3960000276565552; 192.0; 0.0; 0.0; 0.0; 0.0; 0.0; 0.0; 0.0; 0.0; 0.0; 1.6145865576171663E9; 2021-03-01 11:15:57.617
118.0; -68542.6015625; -69484.375; -124193.3515625; -74964.0859375; -75306.2890625; -75466.3671875; -78734.7109375; -79002.1484375; -0.05400000140070915; 0.9180000424385071; 0.3960000276565552; 192.0; 0.0; 0.0; 0.0; 0.0; 0.0; 0.0; 0.0; 0.0; 0.0; 1.6145865576171725E9; 2021-03-01 11:15:57.617
119.0; -8719.5712890625; -8317.240234375; -11001.349609375; -79360.984375; -51640.21875; -29187.779296875; -77288.953125; -27574.18359375; -0.05400000140070915; 0.9180000424385071; 0.3960000276565552; 192.0; 0.0; 0.0; 0.0; 0.0; 0.0; 0.0; 0.0; 0.0; 0.0; 1.614586557617179E9; 2021-03-01 11:15:57.617
120.0; -68479.1484375; -69428.6953125; -124147.2421875; -74901.96875; -75321.484375; -75405.1015625; -78670.4296875; -78936.7890625; -0.05400000140070915; 0.9180000424385071; 0.3960000276565552; 192.0; 0.0; 0.0; 0.0; 0.0; 0.0; 0.0; 0.0; 0.0; 0.0; 1.614586557617185E9; 2021-03-01 11:15:57.617
121.0; -7485.39794921875; -7084.56396484375; -9750.27734375; -79293.75; -50441.0234375; -27950.7890625; -77221.25; -26345.083984375; -0.05400000140070915; 0.9180000424385071; 0.3960000276565552; 192.0; 0.0; 0.0; 0.0; 0.0; 0.0; 0.0; 0.0; 0.0; 0.0; 1.6145865576171916E9; 2021-03-01 11:15:57.617
122.0; -68485.4765625; -69435.2421875; -124137.625; -74905.859375; -75366.90625; -75405.21875; -78674.7421875; -78941.53125; -0.05400000140070915; 0.9180000424385071; 0.3960000276565552; 192.0; 0.0; 0.0; 0.0; 0.0; 0.0; 0.0; 0.0; 0.0; 0.0; 1.6145865576171975E9; 2021-03-01 11:15:57.617
123.0; -6524.9658203125; -6121.49462890625; -8738.861328125; -79344.640625; -49479.49609375; -26986.265625; -77269.1953125; -25370.01171875; -0.026000000536441803; 0.9000000357627869; 0.4000000059604645; 192.0; 255.0; 48.0; 28.0; 32.0; 12.0; 128.0; 0.0; 0.0; 0.0; 1.6145865576172073E9; 2021-03-01 11:15:57.617
124.0; -68495.9375; -69454.8671875; -124120.4140625; -74918.6875; -75466.3046875; -75418.6015625; -78686.6796875; -78953.1953125; -0.026000000536441803; 0.9000000357627869; 0.4000000059604645; 192.0; 0.0; 0.0; 0.0; 0.0; 0.0; 0.0; 0.0; 0.0; 0.0; 1.6145865576172135E9; 2021-03-01 11:15:57.617
125.0; -5466.677734375; -5055.4501953125; -7663.9658203125; -79291.2421875; -48571.56640625; -25944.919921875; -77213.875; -24329.0234375; -0.026000000536441803; 0.9000000357627869; 0.4000000059604645; 192.0; 0.0; 0.0; 0.0; 0.0; 0.0; 0.0; 0.0; 0.0; 0.0; 1.6145865576172197E9; 2021-03-01 11:15:57.617
126.0; -68442.3359375; -69406.3203125; -124073.8125; -74864.1484375; -75523.0546875; -75362.7265625; -78631.265625; -78897.765625; -0.026000000536441803; 0.9000000357627869; 0.4000000059604645; 192.0; 0.0; 0.0; 0.0; 0.0; 0.0; 0.0; 0.0; 0.0; 0.0; 1.6145865576172268E9; 2021-03-01 11:15:57.617
127.0; -4937.544921875; -4546.880859375; -7128.10498046875; -79303.453125; -48005.84375; -25441.26953125; -77073.59375; -23795.041015625; -0.026000000536441803; 0.9000000357627869; 0.4000000059604645; 192.0; 0.0; 0.0; 0.0; 0.0; 0.0; 0.0; 0.0; 0.0; 0.0; 1.6145865576172335E9; 2021-03-01 11:15:57.617
128.0; -68499.0390625; -69462.1328125; -124086.1328125; -74920.5859375; -75590.625; -75418.203125; -78686.9453125; -78953.890625; -0.026000000536441803; 0.9000000357627869; 0.4000000059604645; 192.0; 0.0; 0.0; 0.0; 0.0; 0.0; 0.0; 0.0; 0.0; 0.0; 1.61458655761724E9; 2021-03-01 11:15:57.617
129.0; -3750.935546875; -3371.20166015625; -5908.8623046875; -79314.359375; -46927.484375; -24264.650390625; -75897.0234375; -22625.150390625; -0.026000000536441803; 0.9000000357627869; 0.4000000059604645; 192.0; 0.0; 0.0; 0.0; 0.0; 0.0; 0.0; 0.0; 0.0; 0.0; 1.6145865576172464E9; 2021-03-01 11:15:57.617
130.0; -68440.59375; -69405.2734375; -124046.5; -74862.71875; -75596.3203125; -75360.984375; -78626.84375; -78893.4296875; -0.026000000536441803; 0.9000000357627869; 0.4000000059604645; 192.0; 0.0; 0.0; 0.0; 0.0; 0.0; 0.0; 0.0; 0.0; 0.0; 1.614586557617253E9; 2021-03-01 11:15:57.617
131.0; -3003.91796875; -2605.498046875; -5068.77197265625; -79255.015625; -46154.60546875; -23464.189453125; -75051.7421875; -21820.15234375; -0.026000000536441803; 0.9000000357627869; 0.4000000059604645; 192.0; 0.0; 0.0; 0.0; 0.0; 0.0; 0.0; 0.0; 0.0; 0.0; 1.6145865576172593E9; 2021-03-01 11:15:57.617
132.0; -68459.59375; -69410.6796875; -124032.53125; -74878.875; -75541.2265625; -75373.6328125; -78642.328125; -78911.3984375; -0.026000000536441803; 0.9000000357627869; 0.4000000059604645; 192.0; 0.0; 0.0; 0.0; 0.0; 0.0; 0.0; 0.0; 0.0; 0.0; 1.6145865576172657E9; 2021-03-01 11:15:57.617
133.0; -2070.799560546875; -1710.84716796875; -4118.62158203125; -79310.6484375; -45247.8203125; -22552.796875; -74102.890625; -20903.216796875; -0.02800000086426735; 0.9080000519752502; 0.4240000247955322; 192.0; 255.0; 32.0; 28.0; 96.0; 13.0; 64.0; 0.0; 0.0; 0.0; 1.614586557617272E9; 2021-03-01 11:15:57.617
134.0; -68457.2890625; -69419.578125; -124021.9765625; -74879.2578125; -75573.9921875; -75376.9609375; -78641.390625; -78909.1171875; -0.02800000086426735; 0.9080000519752502; 0.4240000247955322; 192.0; 0.0; 0.0; 0.0; 0.0; 0.0; 0.0; 0.0; 0.0; 0.0; 1.614586557617278E9; 2021-03-01 11:15:57.617
135.0; -317.3724060058594; 61.2214241027832; -2375.968017578125; -79237.8671875; -43657.58203125; -20807.818359375; -72352.640625; -19170.486328125; -0.02800000086426735; 0.9080000519752502; 0.4240000247955322; 192.0; 0.0; 0.0; 0.0; 0.0; 0.0; 0.0; 0.0; 0.0; 0.0; 1.6145865576172843E9; 2021-03-01 11:15:57.617
136.0; -68402.6796875; -69355.5625; -123974.953125; -74822.59375; -75511.0546875; -75315.875; -78583.8359375; -78851.34375; -0.02800000086426735; 0.9080000519752502; 0.4240000247955322; 192.0; 0.0; 0.0; 0.0; 0.0; 0.0; 0.0; 0.0; 0.0; 0.0; 1.6145865576172907E9; 2021-03-01 11:15:57.617
137.0; -249.4007568359375; 132.2105712890625; -2253.525146484375; -79268.3359375; -43463.32421875; -20689.01953125; -72261.6640625; -19076.162109375; -0.02800000086426735; 0.9080000519752502; 0.4240000247955322; 192.0; 0.0; 0.0; 0.0; 0.0; 0.0; 0.0; 0.0; 0.0; 0.0; 1.6145865576173172E9; 2021-03-01 11:15:57.617
138.0; -68486.5703125; -69433.0546875; -123978.53125; -74906.7265625; -75503.515625; -75396.8828125; -78667.3828125; -78935.4921875; -0.02800000086426735; 0.9080000519752502; 0.4240000247955322; 192.0; 0.0; 0.0; 0.0; 0.0; 0.0; 0.0; 0.0; 0.0; 0.0; 1.614586557617324E9; 2021-03-01 11:15:57.617
139.0; 254.6981201171875; 643.08203125; -1728.6614990234375; -79304.0546875; -43035.2890625; -20200.857421875; -71771.625; -18588.6484375; -0.02800000086426735; 0.9080000519752502; 0.4240000247955322; 192.0; 0.0; 0.0; 0.0; 0.0; 0.0; 0.0; 0.0; 0.0; 0.0; 1.614586557617331E9; 2021-03-01 11:15:57.617
140.0; -68450.15625; -69399.4375; -123920.953125; -74870.96875; -75474.015625; -75362.7890625; -78630.1015625; -78897.34375; -0.02800000086426735; 0.9080000519752502; 0.4240000247955322; 192.0; 0.0; 0.0; 0.0; 0.0; 0.0; 0.0; 0.0; 0.0; 0.0; 1.6145865576173425E9; 2021-03-01 11:15:57.617
141.0; 393.7483215332031; 783.7415161132812; -1574.9932861328125; -79273.2734375; -42830.09765625; -20050.744140625; -71623.9921875; -18431.76171875; -0.02800000086426735; 0.9080000519752502; 0.4240000247955322; 192.0; 0.0; 0.0; 0.0; 0.0; 0.0; 0.0; 0.0; 0.0; 0.0; 1.6145865576173491E9; 2021-03-01 11:15:57.617
142.0; -68501.8125; -69445.328125; -123903.0; -74920.65625; -75459.9375; -75409.5078125; -78680.640625; -78948.2109375; -0.03200000151991844; 0.9100000262260437; 0.4240000247955322; 192.0; 255.0; 0.0; 28.0; 112.0; 13.0; 64.0; 0.0; 0.0; 0.0; 1.614586557617356E9; 2021-03-01 11:15:57.617
143.0; -251.54652404785156; 133.082275390625; -2209.022705078125; -79382.734375; -43382.7890625; -20715.126953125; -72288.984375; -19101.263671875; -0.03200000151991844; 0.9100000262260437; 0.4240000247955322; 192.0; 0.0; 0.0; 0.0; 0.0; 0.0; 0.0; 0.0; 0.0; 0.0; 1.6145865576173627E9; 2021-03-01 11:15:57.617
144.0; -68561.0703125; -69506.9921875; -123883.265625; -74982.453125; -75485.7265625; -75473.3203125; -78742.6015625; -79008.4296875; -0.03200000151991844; 0.9100000262260437; 0.4240000247955322; 192.0; 0.0; 0.0; 0.0; 0.0; 0.0; 0.0; 0.0; 0.0; 0.0; 1.6145865576173697E9; 2021-03-01 11:15:57.617
145.0; 251.34535217285156; 632.4649658203125; -1697.994873046875; -79351.59375; -42997.578125; -20210.177734375; -71802.1171875; -18607.1328125; -0.03200000151991844; 0.9100000262260437; 0.4240000247955322; 192.0; 0.0; 0.0; 0.0; 0.0; 0.0; 0.0; 0.0; 0.0; 0.0; 1.6145865576173763E9; 2021-03-01 11:15:57.617
146.0; -68508.0234375; -69458.734375; -123835.03125; -74930.9140625; -75466.7265625; -75421.2421875; -78689.671875; -78954.765625; -0.03200000151991844; 0.9100000262260437; 0.4240000247955322; 192.0; 0.0; 0.0; 0.0; 0.0; 0.0; 0.0; 0.0; 0.0; 0.0; 1.614586557617383E9; 2021-03-01 11:15:57.617
147.0; 614.5835571289062; 980.01220703125; -1322.3067626953125; -79374.8828125; -42443.34765625; -19840.861328125; -71404.5234375; -18219.912109375; -0.03200000151991844; 0.9100000262260437; 0.4240000247955322; 192.0; 0.0; 0.0; 0.0; 0.0; 0.0; 0.0; 0.0; 0.0; 0.0; 1.6145865576173897E9; 2021-03-01 11:15:57.617
148.0; -68606.5078125; -69550.15625; -123843.140625; -75029.8671875; -75516.796875; -75517.7109375; -78789.2890625; -79055.2109375; -0.03200000151991844; 0.9100000262260437; 0.4240000247955322; 192.0; 0.0; 0.0; 0.0; 0.0; 0.0; 0.0; 0.0; 0.0; 0.0; 1.6145865576173964E9; 2021-03-01 11:15:57.617
