Sample Index; EXG Channel 0; EXG Channel 1; EXG Channel 2; EXG Channel 3; EXG Channel 4; EXG Channel 5; EXG Channel 6; EXG Channel 7; Accel Channel 0; Accel Channel 1; Accel Channel 2; Other; Other; Other; Other; Other; Other; Other; Analog Channel 0; Analog Channel 1; Analog Channel 2; Timestamp; Timestamp (Formatted)
105.0; -38550.90234375; -42535.1875; -177243.84375; 187500.0; -61780.21875; -53135.32421875; -60569.15625; -9417.4375; 0.0; 0.0; 0.0; 192.0; 0.0; 0.0; 0.0; 0.0; 0.0; 0.0; 0.0; 0.0; 0.0; 1.6145877710509546E9; 2021-03-01 11:36:11.050
106.0; -187500.015625; -187500.015625; -187500.015625; -37149.2890625; -187500.015625; -187500.015625; -187500.015625; -187500.015625; 0.0; 0.0; 0.0; 192.0; 0.0; 0.0; 0.0; 0.0; 0.0; 0.0; 0.0; 0.0; 0.0; 1.6145877710509613E9; 2021-03-01 11:36:11.050
107.0; -38574.7734375; -42535.27734375; -177241.96875; 187500.0; -61812.046875; -53173.2109375; -60612.33984375; -9405.0322265625; 0.0; 0.0; 0.0; 192.0; 0.0; 0.0; 0.0; 0.0; 0.0; 0.0; 0.0; 0.0; 0.0; 1.614587771050967E9; 2021-03-01 11:36:11.050
108.0; -187500.015625; -187500.015625; -187500.015625; -37132.83984375; -187500.015625; -187500.015625; -187500.015625; -187500.015625; 0.0; 0.0; 0.0; 192.0; 0.0; 0.0; 0.0; 0.0; 0.0; 0.0; 0.0; 0.0; 0.0; 1.6145877710509727E9; 2021-03-01 11:36:11.050
109.0; -38580.13671875; -42538.765625; -177240.921875; 187500.0; -61829.4140625; -53183.87109375; -60622.578125; -9352.55078125; 0.0; 0.0; 0.0; 192.0; 0.0; 0.0; 0.0; 0.0; 0.0; 0.0; 0.0; 0.0; 0.0; 1.614587771050979E9; 2021-03-01 11:36:11.050
110.0; -187500.015625; -187500.015625; -187500.015625; -37148.77734375; -187500.015625; -187500.015625; -187500.015625; -187500.015625; 0.0; 0.0; 0.0; 192.0; 0.0; 0.0; 0.0; 0.0; 0.0; 0.0; 0.0; 0.0; 0.0; 1.6145877710509846E9; 2021-03-01 11:36:11.050
111.0; -38531.58984375; -42497.79296875; -177249.4375; 187500.0; -61762.359375; -53143.28125; -60576.46484375; -9477.6982421875; 0.0; 0.0; 0.0; 192.0; 0.0; 0.0; 0.0; 0.0; 0.0; 0.0; 0.0; 0.0; 0.0; 1.6145877710509903E9; 2021-03-01 11:36:11.050
112.0; -187500.015625; -187500.015625; -187500.015625; -37155.39453125; -187500.015625; -187500.015625; -187500.015625; -187500.015625; 0.0; 0.0; 0.0; 192.0; 0.0; 0.0; 0.0; 0.0; 0.0; 0.0; 0.0; 0.0; 0.0; 1.6145877710509963E9; 2021-03-01 11:36:11.050
113.0; -38575.9375; -42544.33203125; -177247.109375; 187500.0; -61817.5703125; -53200.3671875; -60636.52734375; -9469.517578125; -0.06800000369548798; 0.9760000705718994; 0.1940000057220459; 192.0; 253.0; 224.0; 30.0; 128.0; 6.0; 16.0; 0.0; 0.0; 0.0; 1.614587771051002E9; 2021-03-01 11:36:11.051
114.0; -187500.015625; -187500.015625; -187500.015625; -37150.609375; -187500.015625; -187500.015625; -187500.015625; -187500.015625; -0.06800000369548798; 0.9760000705718994; 0.1940000057220459; 192.0; 0.0; 0.0; 0.0; 0.0; 0.0; 0.0; 0.0; 0.0; 0.0; 1.614587771051008E9; 2021-03-01 11:36:11.051
115.0; -38538.49609375; -42514.3359375; -177248.359375; 187500.0; -61804.62890625; -53165.90234375; -60623.13671875; -9452.3291015625; -0.06800000369548798; 0.9760000705718994; 0.1940000057220459; 192.0; 0.0; 0.0; 0.0; 0.0; 0.0; 0.0; 0.0; 0.0; 0.0; 1.6145877710510137E9; 2021-03-01 11:36:11.051
116.0; -187500.015625; -187500.015625; -187500.015625; -37165.05078125; -187500.015625; -187500.015625; -187500.015625; -187500.015625; -0.06800000369548798; 0.9760000705718994; 0.1940000057220459; 192.0; 0.0; 0.0; 0.0; 0.0; 0.0; 0.0; 0.0; 0.0; 0.0; 1.6145877710510197E9; 2021-03-01 11:36:11.051
117.0; -38565.02734375; -42480.359375; -177248.203125; 187500.0; -61829.70703125; -53194.890625; -60650.78515625; -9428.189453125; -0.06800000369548798; 0.9760000705718994; 0.1940000057220459; 192.0; 0.0; 0.0; 0.0; 0.0; 0.0; 0.0; 0.0; 0.0; 0.0; 1.6145877710510254E9; 2021-03-01 11:36:11.051
118.0; -187500.015625; -187500.015625; -187500.015625; -37155.1484375; -187500.015625; -187500.015625; -187500.015625; -187500.015625; -0.06800000369548798; 0.9760000705718994; 0.1940000057220459; 192.0; 0.0; 0.0; 0.0; 0.0; 0.0; 0.0; 0.0; 0.0; 0.0; 1.614587771051031E9; 2021-03-01 11:36:11.051
119.0; -38599.828125; -42593.328125; -177248.078125; 187500.0; -61832.43359375; -53168.359375; -60625.05859375; -9370.767578125; -0.06800000369548798; 0.9760000705718994; 0.1940000057220459; 192.0; 0.0; 0.0; 0.0; 0.0; 0.0; 0.0; 0.0; 0.0; 0.0; 1.614587771051037E9; 2021-03-01 11:36:11.051
120.0; -187500.015625; -187500.015625; -187500.015625; -37167.640625; -187500.015625; -187500.015625; -187500.015625; -187500.015625; -0.06800000369548798; 0.9760000705718994; 0.1940000057220459; 192.0; 0.0; 0.0; 0.0; 0.0; 0.0; 0.0; 0.0; 0.0; 0.0; 1.6145877710510428E9; 2021-03-01 11:36:11.051
121.0; -38565.49609375; -42522.16015625; -177251.078125; 187500.0; -61801.25390625; -53153.7890625; -60606.37109375; -9441.7119140625; -0.06800000369548798; 0.9760000705718994; 0.1940000057220459; 192.0; 0.0; 0.0; 0.0; 0.0; 0.0; 0.0; 0.0; 0.0; 0.0; 1.6145877710510485E9; 2021-03-01 11:36:11.051
122.0; -187500.015625; -187500.015625; -187500.015625; -37169.02734375; -187500.015625; -187500.015625; -187500.015625; -187500.015625; -0.06800000369548798; 0.9760000705718994; 0.1940000057220459; 192.0; 0.0; 0.0; 0.0; 0.0; 0.0; 0.0; 0.0; 0.0; 0.0; 1.6145877710510545E9; 2021-03-01 11:36:11.051
123.0; -38599.80859375; -42555.171875; -177246.84375; 187500.0; -61836.79296875; -53201.328125; -60647.61328125; -9389.54296875; -0.06599999964237213; 0.9720000624656677; 0.1860000044107437; 192.0; 253.0; 240.0; 30.0; 96.0; 5.0; 208.0; 0.0; 0.0; 0.0; 1.6145877710510602E9; 2021-03-01 11:36:11.051
124.0; -187500.015625; -187500.015625; -187500.015625; -37165.8984375; -187500.015625; -187500.015625; -187500.015625; -187500.015625; -0.06599999964237213; 0.9720000624656677; 0.1860000044107437; 192.0; 0.0; 0.0; 0.0; 0.0; 0.0; 0.0; 0.0; 0.0; 0.0; 1.614587771051066E9; 2021-03-01 11:36:11.051
125.0; -38562.45703125; -42499.1796875; -177248.671875; 187500.0; -61798.078125; -53162.3046875; -60613.34765625; -9429.1943359375; -0.06599999964237213; 0.9720000624656677; 0.1860000044107437; 192.0; 0.0; 0.0; 0.0; 0.0; 0.0; 0.0; 0.0; 0.0; 0.0; 1.614587771051072E9; 2021-03-01 11:36:11.051
126.0; -187500.015625; -187500.015625; -187500.015625; -37183.265625; -187500.015625; -187500.015625; -187500.015625; -187500.015625; -0.06599999964237213; 0.9720000624656677; 0.1860000044107437; 192.0; 0.0; 0.0; 0.0; 0.0; 0.0; 0.0; 0.0; 0.0; 0.0; 1.6145877710510776E9; 2021-03-01 11:36:11.051
127.0; -38555.41796875; -42506.69140625; -177249.6875; 187500.0; -61811.17578125; -53177.50390625; -60632.66015625; -9459.7724609375; -0.06599999964237213; 0.9720000624656677; 0.1860000044107437; 192.0; 0.0; 0.0; 0.0; 0.0; 0.0; 0.0; 0.0; 0.0; 0.0; 1.6145877710510836E9; 2021-03-01 11:36:11.051
128.0; -187500.015625; -187500.015625; -187500.015625; -37176.3359375; -187500.015625; -187500.015625; -187500.015625; -187500.015625; -0.06599999964237213; 0.9720000624656677; 0.1860000044107437; 192.0; 0.0; 0.0; 0.0; 0.0; 0.0; 0.0; 0.0; 0.0; 0.0; 1.6145877710510943E9; 2021-03-01 11:36:11.051
129.0; -38553.359375; -42516.99609375; -177248.078125; 187500.0; -61803.578125; -53185.86328125; -60635.33984375; -9380.8037109375; -0.06599999964237213; 0.9720000624656677; 0.1860000044107437; 192.0; 0.0; 0.0; 0.0; 0.0; 0.0; 0.0; 0.0; 0.0; 0.0; 1.6145877710511005E9; 2021-03-01 11:36:11.051
130.0; -187500.015625; -187500.015625; -187500.015625; -37189.6796875; -187500.015625; -187500.015625; -187500.015625; -187500.015625; -0.06599999964237213; 0.9720000624656677; 0.1860000044107437; 192.0; 0.0; 0.0; 0.0; 0.0; 0.0; 0.0; 0.0; 0.0; 0.0; 1.6145877710511062E9; 2021-03-01 11:36:11.051
131.0; -38511.8984375; -42489.76953125; -177251.265625; 187500.0; -61764.91015625; -53132.41796875; -60594.1015625; -9432.771484375; -0.06599999964237213; 0.9720000624656677; 0.1860000044107437; 192.0; 0.0; 0.0; 0.0; 0.0; 0.0; 0.0; 0.0; 0.0; 0.0; 1.614587771051112E9; 2021-03-01 11:36:11.051
132.0; -187500.015625; -187500.015625; -187500.015625; -37196.25; -187500.015625; -187500.015625; -187500.015625; -187500.015625; -0.06599999964237213; 0.9720000624656677; 0.1860000044107437; 192.0; 0.0; 0.0; 0.0; 0.0; 0.0; 0.0; 0.0; 0.0; 0.0; 1.6145877710511177E9; 2021-03-01 11:36:11.051
133.0; -38547.6171875; -42515.7421875; -177251.203125; 187500.0; -61811.625; -53170.26171875; -60638.06640625; -9366.38671875; -0.05000000074505806; 0.956000030040741; 0.1940000057220459; 192.0; 254.0; 112.0; 29.0; 224.0; 6.0; 16.0; 0.0; 0.0; 0.0; 1.6145877710511236E9; 2021-03-01 11:36:11.051
134.0; -187500.015625; -187500.015625; -187500.015625; -37194.3515625; -187500.015625; -187500.015625; -187500.015625; -187500.015625; -0.05000000074505806; 0.956000030040741; 0.1940000057220459; 192.0; 0.0; 0.0; 0.0; 0.0; 0.0; 0.0; 0.0; 0.0; 0.0; 1.614587771051129E9; 2021-03-01 11:36:11.051
135.0; -38519.20703125; -42457.2265625; -177252.65625; 187500.0; -61796.58203125; -53145.29296875; -60624.74609375; -9371.3486328125; -0.05000000074505806; 0.956000030040741; 0.1940000057220459; 192.0; 0.0; 0.0; 0.0; 0.0; 0.0; 0.0; 0.0; 0.0; 0.0; 1.6145877710511353E9; 2021-03-01 11:36:11.051
136.0; -187500.015625; -187500.015625; -187500.015625; -37211.00390625; -187500.015625; -187500.015625; -187500.015625; -187500.015625; -0.05000000074505806; 0.956000030040741; 0.1940000057220459; 192.0; 0.0; 0.0; 0.0; 0.0; 0.0; 0.0; 0.0; 0.0; 0.0; 1.614587771051141E9; 2021-03-01 11:36:11.051
137.0; -38511.1171875; -42496.85546875; -177253.171875; 187500.0; -61780.93359375; -53152.35546875; -60604.0703125; -9403.8251953125; -0.05000000074505806; 0.956000030040741; 0.1940000057220459; 192.0; 0.0; 0.0; 0.0; 0.0; 0.0; 0.0; 0.0; 0.0; 0.0; 1.6145877710511467E9; 2021-03-01 11:36:11.051
138.0; -187500.015625; -187500.015625; -187500.015625; -37203.6953125; -187500.015625; -187500.015625; -187500.015625; -187500.015625; -0.05000000074505806; 0.956000030040741; 0.1940000057220459; 192.0; 0.0; 0.0; 0.0; 0.0; 0.0; 0.0; 0.0; 0.0; 0.0; 1.6145877710511527E9; 2021-03-01 11:36:11.051
139.0; -38526.31640625; -42487.89453125; -177253.015625; 187500.0; -61786.61328125; -53157.96875; -60631.40625; -9353.0869140625; -0.05000000074505806; 0.956000030040741; 0.1940000057220459; 192.0; 0.0; 0.0; 0.0; 0.0; 0.0; 0.0; 0.0; 0.0; 0.0; 1.6145877710511584E9; 2021-03-01 11:36:11.051
140.0; -187500.015625; -187500.015625; -187500.015625; -37215.8984375; -187500.015625; -187500.015625; -187500.015625; -187500.015625; -0.05000000074505806; 0.956000030040741; 0.1940000057220459; 192.0; 0.0; 0.0; 0.0; 0.0; 0.0; 0.0; 0.0; 0.0; 0.0; 1.6145877710511642E9; 2021-03-01 11:36:11.051
141.0; -38492.1171875; -42460.9140625; -177254.25; 187500.0; -61761.95703125; -53129.6015625; -60589.83203125; -9413.3251953125; -0.05000000074505806; 0.956000030040741; 0.1940000057220459; 192.0; 0.0; 0.0; 0.0; 0.0; 0.0; 0.0; 0.0; 0.0; 0.0; 1.61458777105117E9; 2021-03-01 11:36:11.051
142.0; -187500.015625; -187500.015625; -187500.015625; -37217.91015625; -187500.015625; -187500.015625; -187500.015625; -187500.015625; -0.05000000074505806; 0.956000030040741; 0.1940000057220459; 192.0; 0.0; 0.0; 0.0; 0.0; 0.0; 0.0; 0.0; 0.0; 0.0; 1.6145877710511758E9; 2021-03-01 11:36:11.051
143.0; -38545.3359375; -42512.5234375; -177254.0625; 187500.0; -61801.23046875; -53177.50390625; -60643.4765625; -9326.4443359375; -0.04000000283122063; 0.9620000720024109; 0.1900000125169754; 192.0; 254.0; 192.0; 30.0; 16.0; 5.0; 240.0; 0.0; 0.0; 0.0; 1.6145877710511816E9; 2021-03-01 11:36:11.051
144.0; -187500.015625; -187500.015625; -187500.015625; -37214.71484375; -187500.015625; -187500.015625; -187500.015625; -187500.015625; -0.04000000283122063; 0.9620000720024109; 0.1900000125169754; 192.0; 0.0; 0.0; 0.0; 0.0; 0.0; 0.0; 0.0; 0.0; 0.0; 1.6145877710511875E9; 2021-03-01 11:36:11.051
145.0; -38498.64453125; -42443.75; -177255.46875; 187500.0; -61767.0546875; -53130.80859375; -60600.3828125; -9343.251953125; -0.04000000283122063; 0.9620000720024109; 0.1900000125169754; 192.0; 0.0; 0.0; 0.0; 0.0; 0.0; 0.0; 0.0; 0.0; 0.0; 1.6145877710511932E9; 2021-03-01 11:36:11.051
146.0; -187500.015625; -187500.015625; -187500.015625; -37228.9765625; -187500.015625; -187500.015625; -187500.015625; -187500.015625; -0.04000000283122063; 0.9620000720024109; 0.1900000125169754; 192.0; 0.0; 0.0; 0.0; 0.0; 0.0; 0.0; 0.0; 0.0; 0.0; 1.6145877710511992E9; 2021-03-01 11:36:11.051
147.0; -38513.55078125; -42486.4609375; -177255.90625; 187500.0; -61793.36328125; -53158.21484375; -60624.3671875; -9313.2119140625; -0.04000000283122063; 0.9620000720024109; 0.1900000125169754; 192.0; 0.0; 0.0; 0.0; 0.0; 0.0; 0.0; 0.0; 0.0; 0.0; 1.614587771051205E9; 2021-03-01 11:36:11.051
148.0; -187500.015625; -187500.015625; -187500.015625; -37216.43359375; -187500.015625; -187500.015625; -187500.015625; -187500.015625; -0.04000000283122063; 0.9620000720024109; 0.1900000125169754; 192.0; 0.0; 0.0; 0.0; 0.0; 0.0; 0.0; 0.0; 0.0; 0.0; 1.6145877710512109E9; 2021-03-01 11:36:11.051
149.0; -38537.01953125; -42512.078125; -177253.46875; 187500.0; -61805.03125; -53183.0; -60641.6875; -9252.080078125; -0.04000000283122063; 0.9620000720024109; 0.1900000125169754; 192.0; 0.0; 0.0; 0.0; 0.0; 0.0; 0.0; 0.0; 0.0; 0.0; 1.6145877710512166E9; 2021-03-01 11:36:11.051
150.0; -187500.015625; -187500.015625; -187500.015625; -37225.46484375; -187500.015625; -187500.015625; -187500.015625; -187500.015625; -0.04000000283122063; 0.9620000720024109; 0.1900000125169754; 192.0; 0.0; 0.0; 0.0; 0.0; 0.0; 0.0; 0.0; 0.0; 0.0; 1.6145877710512223E9; 2021-03-01 11:36:11.051
151.0; -38492.453125; -42444.62109375; -177255.703125; 187500.0; -61776.7109375; -53121.80078125; -60600.11328125; -9315.87109375; -0.04000000283122063; 0.9620000720024109; 0.1900000125169754; 192.0; 0.0; 0.0; 0.0; 0.0; 0.0; 0.0; 0.0; 0.0; 0.0; 1.6145877710512283E9; 2021-03-01 11:36:11.051
152.0; -187500.015625; -187500.015625; -187500.015625; -37223.453125; -187500.015625; -187500.015625; -187500.015625; -187500.015625; -0.04000000283122063; 0.9620000720024109; 0.1900000125169754; 192.0; 0.0; 0.0; 0.0; 0.0; 0.0; 0.0; 0.0; 0.0; 0.0; 1.614587771051237E9; 2021-03-01 11:36:11.051
153.0; -38543.125; -42482.4609375; -177251.34375; 187500.0; -61806.86328125; -53184.90234375; -60650.02734375; -9218.2841796875; -0.03200000151991844; 0.9640000462532043; 0.19200000166893005; 192.0; 255.0; 0.0; 30.0; 32.0; 6.0; 0.0; 0.0; 0.0; 0.0; 1.6145877710512428E9; 2021-03-01 11:36:11.051
154.0; -187500.015625; -187500.015625; -187500.015625; -37216.234375; -187500.015625; -187500.015625; -187500.015625; -187500.015625; -0.03200000151991844; 0.9640000462532043; 0.19200000166893005; 192.0; 0.0; 0.0; 0.0; 0.0; 0.0; 0.0; 0.0; 0.0; 0.0; 1.614587771051249E9; 2021-03-01 11:36:11.051
155.0; -38490.44140625; -42472.91796875; -177254.359375; 187500.0; -61753.91015625; -53132.1953125; -60603.890625; -9255.8798828125; -0.03200000151991844; 0.9640000462532043; 0.19200000166893005; 192.0; 0.0; 0.0; 0.0; 0.0; 0.0; 0.0; 0.0; 0.0; 0.0; 1.6145877710512547E9; 2021-03-01 11:36:11.051
156.0; -187500.015625; -187500.015625; -187500.015625; -37233.265625; -187500.015625; -187500.015625; -187500.015625; -187500.015625; -0.03200000151991844; 0.9640000462532043; 0.19200000166893005; 192.0; 0.0; 0.0; 0.0; 0.0; 0.0; 0.0; 0.0; 0.0; 0.0; 1.6145877710512607E9; 2021-03-01 11:36:11.051
157.0; -38489.5703125; -42489.19140625; -177257.484375; 187500.0; -61789.0703125; -53153.09375; -60621.953125; -9291.9775390625; -0.03200000151991844; 0.9640000462532043; 0.19200000166893005; 192.0; 0.0; 0.0; 0.0; 0.0; 0.0; 0.0; 0.0; 0.0; 0.0; 1.6145877710512664E9; 2021-03-01 11:36:11.051
158.0; -187500.015625; -187500.015625; -187500.015625; -37219.1171875; -187500.015625; -187500.015625; -187500.015625; -187500.015625; -0.03200000151991844; 0.9640000462532043; 0.19200000166893005; 192.0; 0.0; 0.0; 0.0; 0.0; 0.0; 0.0; 0.0; 0.0; 0.0; 1.6145877710512722E9; 2021-03-01 11:36:11.051
159.0; -38525.265625; -42470.66015625; -177253.734375; 187500.0; -61806.3046875; -53176.6328125; -60635.8984375; -9174.51953125; -0.03200000151991844; 0.9640000462532043; 0.19200000166893005; 192.0; 0.0; 0.0; 0.0; 0.0; 0.0; 0.0; 0.0; 0.0; 0.0; 1.614587771051278E9; 2021-03-01 11:36:11.051
160.0; -187500.015625; -187500.015625; -187500.015625; -37225.15234375; -187500.015625; -187500.015625; -187500.015625; -187500.015625; -0.03200000151991844; 0.9640000462532043; 0.19200000166893005; 192.0; 0.0; 0.0; 0.0; 0.0; 0.0; 0.0; 0.0; 0.0; 0.0; 1.614587771051284E9; 2021-03-01 11:36:11.051
161.0; -38466.03125; -42425.82421875; -177256.25; 187500.0; -61754.42578125; -53112.2578125; -60585.9453125; -9261.3779296875; -0.03200000151991844; 0.9640000462532043; 0.19200000166893005; 192.0; 0.0; 0.0; 0.0; 0.0; 0.0; 0.0; 0.0; 0.0; 0.0; 1.6145877710512896E9; 2021-03-01 11:36:11.051
162.0; -187500.015625; -187500.015625; -187500.015625; -37221.59765625; -187500.015625; -187500.015625; -187500.015625; -187500.015625; -0.04400000348687172; 0.968000054359436; 0.1900000125169754; 192.0; 254.0; 160.0; 30.0; 64.0; 5.0; 240.0; 0.0; 0.0; 0.0; 1.6145877710512955E9; 2021-03-01 11:36:11.051
163.0; -38540.3515625; -42528.1484375; -177252.8125; 187500.0; -61835.0703125; -53164.26953125; -60643.25390625; -9156.7275390625; -0.04400000348687172; 0.968000054359436; 0.1900000125169754; 192.0; 0.0; 0.0; 0.0; 0.0; 0.0; 0.0; 0.0; 0.0; 0.0; 1.6145877710513017E9; 2021-03-01 11:36:11.051
164.0; -187500.015625; -187500.015625; -187500.015625; -37210.46875; -187500.015625; -187500.015625; -187500.015625; -187500.015625; -0.04400000348687172; 0.968000054359436; 0.1900000125169754; 192.0; 0.0; 0.0; 0.0; 0.0; 0.0; 0.0; 0.0; 0.0; 0.0; 1.6145877710513072E9; 2021-03-01 11:36:11.051
165.0; -38510.64453125; -42492.38671875; -177252.859375; 187500.0; -61768.4609375; -53171.84765625; -60599.17578125; -9169.69140625; -0.04400000348687172; 0.968000054359436; 0.1900000125169754; 192.0; 0.0; 0.0; 0.0; 0.0; 0.0; 0.0; 0.0; 0.0; 0.0; 1.6145877710513132E9; 2021-03-01 11:36:11.051
166.0; -187500.015625; -187500.015625; -187500.015625; -37222.08984375; -187500.015625; -187500.015625; -187500.015625; -187500.015625; -0.04400000348687172; 0.968000054359436; 0.1900000125169754; 192.0; 0.0; 0.0; 0.0; 0.0; 0.0; 0.0; 0.0; 0.0; 0.0; 1.614587771051319E9; 2021-03-01 11:36:11.051
167.0; -38499.671875; -42464.66796875; -177254.53125; 187500.0; -61782.96875; -53151.6640625; -60598.01171875; -9220.98828125; -0.04400000348687172; 0.968000054359436; 0.1900000125169754; 192.0; 0.0; 0.0; 0.0; 0.0; 0.0; 0.0; 0.0; 0.0; 0.0; 1.6145877710513248E9; 2021-03-01 11:36:11.051
168.0; -187500.015625; -187500.015625; -187500.015625; -37209.37109375; -187500.015625; -187500.015625; -187500.015625; -187500.015625; -0.04400000348687172; 0.968000054359436; 0.1900000125169754; 192.0; 0.0; 0.0; 0.0; 0.0; 0.0; 0.0; 0.0; 0.0; 0.0; 1.6145877710513306E9; 2021-03-01 11:36:11.051
169.0; -38546.765625; -42531.41015625; -177250.734375; 187500.0; -61817.3671875; -53187.515625; -60629.6875; -9156.7939453125; -0.04400000348687172; 0.968000054359436; 0.1900000125169754; 192.0; 0.0; 0.0; 0.0; 0.0; 0.0; 0.0; 0.0; 0.0; 0.0; 1.6145877710513363E9; 2021-03-01 11:36:11.051
170.0; -187500.015625; -187500.015625; -187500.015625; -37212.74609375; -187500.015625; -187500.015625; -187500.015625; -187500.015625; -0.04400000348687172; 0.968000054359436; 0.1900000125169754; 192.0; 0.0; 0.0; 0.0; 0.0; 0.0; 0.0; 0.0; 0.0; 0.0; 1.6145877710513422E9; 2021-03-01 11:36:11.051
171.0; -38510.578125; -42504.38671875; -177253.65625; 187500.0; -61788.2421875; -53142.34375; -60592.55859375; -9223.0; -0.04400000348687172; 0.968000054359436; 0.1900000125169754; 192.0; 0.0; 0.0; 0.0; 0.0; 0.0; 0.0; 0.0; 0.0; 0.0; 1.614587771051348E9; 2021-03-01 11:36:11.051
172.0; -187500.015625; -187500.015625; -187500.015625; -37210.8046875; -187500.015625; -187500.015625; -187500.015625; -187500.015625; -0.046000003814697266; 0.9660000205039978; 0.18000000715255737; 192.0; 254.0; 144.0; 30.0; 48.0; 5.0; 160.0; 0.0; 0.0; 0.0; 1.614587771051354E9; 2021-03-01 11:36:11.051
173.0; -38553.91796875; -42541.78125; -177248.96875; 187500.0; -61799.53125; -53187.046875; -60620.87890625; -9151.541015625; -0.046000003814697266; 0.9660000205039978; 0.18000000715255737; 192.0; 0.0; 0.0; 0.0; 0.0; 0.0; 0.0; 0.0; 0.0; 0.0; 1.61458777105136E9; 2021-03-01 11:36:11.051
174.0; -187500.015625; -187500.015625; -187500.015625; -37200.453125; -187500.015625; -187500.015625; -187500.015625; -187500.015625; -0.046000003814697266; 0.9660000205039978; 0.18000000715255737; 192.0; 0.0; 0.0; 0.0; 0.0; 0.0; 0.0; 0.0; 0.0; 0.0; 1.6145877710513656E9; 2021-03-01 11:36:11.051
175.0; -38507.49609375; -42499.0703125; -177250.0; 187500.0; -61777.29296875; -53108.61328125; -60574.38671875; -9191.1484375; -0.046000003814697266; 0.9660000205039978; 0.18000000715255737; 192.0; 0.0; 0.0; 0.0; 0.0; 0.0; 0.0; 0.0; 0.0; 0.0; 1.6145877710513744E9; 2021-03-01 11:36:11.051
176.0; -187500.015625; -187500.015625; -187500.015625; -37216.7265625; -187500.015625; -187500.015625; -187500.015625; -187500.015625; -0.046000003814697266; 0.9660000205039978; 0.18000000715255737; 192.0; 0.0; 0.0; 0.0; 0.0; 0.0; 0.0; 0.0; 0.0; 0.0; 1.6145877710513804E9; 2021-03-01 11:36:11.051
177.0; -38515.36328125; -42472.06640625; -177253.0; 187500.0; -61789.31640625; -53169.76953125; -60591.5078125; -9208.9853515625; -0.046000003814697266; 0.9660000205039978; 0.18000000715255737; 192.0; 0.0; 0.0; 0.0; 0.0; 0.0; 0.0; 0.0; 0.0; 0.0; 1.614587771051386E9; 2021-03-01 11:36:11.051
178.0; -187500.015625; -187500.015625; -187500.015625; -37200.90234375; -187500.015625; -187500.015625; -187500.015625; -187500.015625; -0.046000003814697266; 0.9660000205039978; 0.18000000715255737; 192.0; 0.0; 0.0; 0.0; 0.0; 0.0; 0.0; 0.0; 0.0; 0.0; 1.614587771051392E9; 2021-03-01 11:36:11.051
179.0; -38553.26953125; -42582.3515625; -177248.71875; 187500.0; -61825.86328125; -53178.46484375; -60610.796875; -9127.2451171875; -0.046000003814697266; 0.9660000205039978; 0.18000000715255737; 192.0; 0.0; 0.0; 0.0; 0.0; 0.0; 0.0; 0.0; 0.0; 0.0; 1.6145877710513978E9; 2021-03-01 11:36:11.051
180.0; -187500.015625; -187500.015625; -187500.015625; -37206.421875; -187500.015625; -187500.015625; -187500.015625; -187500.015625; -0.046000003814697266; 0.9660000205039978; 0.18000000715255737; 192.0; 0.0; 0.0; 0.0; 0.0; 0.0; 0.0; 0.0; 0.0; 0.0; 1.6145877710514035E9; 2021-03-01 11:36:11.051
181.0; -38521.57421875; -42510.9140625; -177252.5625; 187500.0; -61783.23828125; -53147.84375; -60568.8203125; -9206.705078125; -0.046000003814697266; 0.9660000205039978; 0.18000000715255737; 192.0; 0.0; 0.0; 0.0; 0.0; 0.0; 0.0; 0.0; 0.0; 0.0; 1.6145877710514095E9; 2021-03-01 11:36:11.051
182.0; -187500.015625; -187500.015625; -187500.015625; -37206.64453125; -187500.015625; -187500.015625; -187500.015625; -187500.015625; -0.04000000283122063; 0.9520000219345093; 0.16600000858306885; 192.0; 254.0; 192.0; 29.0; 192.0; 5.0; 48.0; 0.0; 0.0; 0.0; 1.6145877710514152E9; 2021-03-01 11:36:11.051
183.0; -38559.10546875; -42538.02734375; -177249.28125; 187500.0; -61820.25; -53187.11328125; -60614.3984375; -9125.6357421875; -0.04000000283122063; 0.9520000219345093; 0.16600000858306885; 192.0; 0.0; 0.0; 0.0; 0.0; 0.0; 0.0; 0.0; 0.0; 0.0; 1.6145877710514212E9; 2021-03-01 11:36:11.051
184.0; -187500.015625; -187500.015625; -187500.015625; -37194.91015625; -187500.015625; -187500.015625; -187500.015625; -187500.015625; -0.04000000283122063; 0.9520000219345093; 0.16600000858306885; 192.0; 0.0; 0.0; 0.0; 0.0; 0.0; 0.0; 0.0; 0.0; 0.0; 1.614587771051427E9; 2021-03-01 11:36:11.051
185.0; -38526.76171875; -42496.09765625; -177247.296875; 187500.0; -61800.71484375; -53134.4765625; -60575.5703125; -9123.958984375; -0.04000000283122063; 0.9520000219345093; 0.16600000858306885; 192.0; 0.0; 0.0; 0.0; 0.0; 0.0; 0.0; 0.0; 0.0; 0.0; 1.6145877710514328E9; 2021-03-01 11:36:11.051
186.0; -187500.015625; -187500.015625; -187500.015625; -37207.671875; -187500.015625; -187500.015625; -187500.015625; -187500.015625; -0.04000000283122063; 0.9520000219345093; 0.16600000858306885; 192.0; 0.0; 0.0; 0.0; 0.0; 0.0; 0.0; 0.0; 0.0; 0.0; 1.6145877710514386E9; 2021-03-01 11:36:11.051
187.0; -38546.41015625; -42531.76953125; -177250.046875; 187500.0; -61801.6328125; -53137.58203125; -60580.66796875; -9149.3505859375; -0.04000000283122063; 0.9520000219345093; 0.16600000858306885; 192.0; 0.0; 0.0; 0.0; 0.0; 0.0; 0.0; 0.0; 0.0; 0.0; 1.6145877710514443E9; 2021-03-01 11:36:11.051
188.0; -187500.015625; -187500.015625; -187500.015625; -37191.9140625; -187500.015625; -187500.015625; -187500.015625; -187500.015625; -0.04000000283122063; 0.9520000219345093; 0.16600000858306885; 192.0; 0.0; 0.0; 0.0; 0.0; 0.0; 0.0; 0.0; 0.0; 0.0; 1.6145877710514505E9; 2021-03-01 11:36:11.051
189.0; -38585.12109375; -42582.796875; -177245.234375; 187500.0; -61826.421875; -53168.71875; -60617.7734375; -9048.9697265625; -0.04000000283122063; 0.9520000219345093; 0.16600000858306885; 192.0; 0.0; 0.0; 0.0; 0.0; 0.0; 0.0; 0.0; 0.0; 0.0; 1.614587771051456E9; 2021-03-01 11:36:11.051
190.0; -187500.015625; -187500.015625; -187500.015625; -37196.765625; -187500.015625; -187500.015625; -187500.015625; -187500.015625; -0.04000000283122063; 0.9520000219345093; 0.16600000858306885; 192.0; 0.0; 0.0; 0.0; 0.0; 0.0; 0.0; 0.0; 0.0; 0.0; 1.614587771051462E9; 2021-03-01 11:36:11.051
191.0; -38549.9609375; -42488.7421875; -177248.5625; 187500.0; -61767.1875; -53097.796875; -60560.84375; -9147.0263671875; -0.04000000283122063; 0.9520000219345093; 0.16600000858306885; 192.0; 0.0; 0.0; 0.0; 0.0; 0.0; 0.0; 0.0; 0.0; 0.0; 1.614587771051468E9; 2021-03-01 11:36:11.051
192.0; -187500.015625; -187500.015625; -187500.015625; -37197.8828125; -187500.015625; -187500.015625; -187500.015625; -187500.015625; -0.036000002175569534; 0.9580000638961792; 0.17800000309944153; 192.0; 254.0; 224.0; 29.0; 240.0; 5.0; 144.0; 0.0; 0.0; 0.0; 1.6145877710514736E9; 2021-03-01 11:36:11.051
193.0; -38612.92578125; -42647.23828125; -177245.546875; 187500.0; -61822.62109375; -53176.85546875; -60617.05859375; -9088.5546875; -0.036000002175569534; 0.9580000638961792; 0.17800000309944153; 192.0; 0.0; 0.0; 0.0; 0.0; 0.0; 0.0; 0.0; 0.0; 0.0; 1.6145877710514793E9; 2021-03-01 11:36:11.051
194.0; -187500.015625; -187500.015625; -187500.015625; -37182.953125; -187500.015625; -187500.015625; -187500.015625; -187500.015625; -0.036000002175569534; 0.9580000638961792; 0.17800000309944153; 192.0; 0.0; 0.0; 0.0; 0.0; 0.0; 0.0; 0.0; 0.0; 0.0; 1.6145877710514853E9; 2021-03-01 11:36:11.051
195.0; -38609.84375; -42583.515625; -177244.0; 187500.0; -61815.3125; -53154.75; -60592.71484375; -9065.8896484375; -0.036000002175569534; 0.9580000638961792; 0.17800000309944153; 192.0; 0.0; 0.0; 0.0; 0.0; 0.0; 0.0; 0.0; 0.0; 0.0; 1.614587771051491E9; 2021-03-01 11:36:11.051
196.0; -187500.015625; -187500.015625; -187500.015625; -37194.88671875; -187500.015625; -187500.015625; -187500.015625; -187500.015625; -0.036000002175569534; 0.9580000638961792; 0.17800000309944153; 192.0; 0.0; 0.0; 0.0; 0.0; 0.0; 0.0; 0.0; 0.0; 0.0; 1.6145877710514967E9; 2021-03-01 11:36:11.051
197.0; -38616.94921875; -42605.1484375; -177246.40625; 187500.0; -61805.58984375; -53150.01171875; -60587.12890625; -9114.1025390625; -0.036000002175569534; 0.9580000638961792; 0.17800000309944153; 192.0; 0.0; 0.0; 0.0; 0.0; 0.0; 0.0; 0.0; 0.0; 0.0; 1.6145877710515025E9; 2021-03-01 11:36:11.051
198.0; -187500.015625; -187500.015625; -187500.015625; -37181.56640625; -187500.015625; -187500.015625; -187500.015625; -187500.015625; -0.036000002175569534; 0.9580000638961792; 0.17800000309944153; 192.0; 0.0; 0.0; 0.0; 0.0; 0.0; 0.0; 0.0; 0.0; 0.0; 1.6145877710515113E9; 2021-03-01 11:36:11.051
199.0; -38658.5703125; -42674.8203125; -177242.359375; 187500.0; -61824.67578125; -53162.953125; -60616.05078125; -9053.73046875; -0.036000002175569534; 0.9580000638961792; 0.17800000309944153; 192.0; 0.0; 0.0; 0.0; 0.0; 0.0; 0.0; 0.0; 0.0; 0.0; 1.614587771051517E9; 2021-03-01 11:36:11.051
200.0; -187500.015625; -187500.015625; -187500.015625; -37183.98046875; -187500.015625; -187500.015625; -187500.015625; -187500.015625; -0.036000002175569534; 0.9580000638961792; 0.17800000309944153; 192.0; 0.0; 0.0; 0.0; 0.0; 0.0; 0.0; 0.0; 0.0; 0.0; 1.6145877710515227E9; 2021-03-01 11:36:11.051
201.0; -38636.9765625; -42651.5078125; -177245.96875; 187500.0; -61792.9375; -53113.66796875; -60566.23046875; -9138.599609375; -0.03200000151991844; 0.9540000557899475; 0.18200001120567322; 192.0; 255.0; 0.0; 29.0; 208.0; 5.0; 176.0; 0.0; 0.0; 0.0; 1.6145877710515285E9; 2021-03-01 11:36:11.051
202.0; -187500.015625; -187500.015625; -187500.015625; -37188.4296875; -187500.015625; -187500.015625; -187500.015625; -187500.015625; -0.03200000151991844; 0.9540000557899475; 0.18200001120567322; 192.0; 0.0; 0.0; 0.0; 0.0; 0.0; 0.0; 0.0; 0.0; 0.0; 1.6145877710515344E9; 2021-03-01 11:36:11.051
203.0; -38680.7890625; -42651.640625; -177245.4375; 187500.0; -61808.046875; -53146.9921875; -60609.63671875; -9118.3935546875; -0.03200000151991844; 0.9540000557899475; 0.18200001120567322; 192.0; 0.0; 0.0; 0.0; 0.0; 0.0; 0.0; 0.0; 0.0; 0.0; 1.6145877710515401E9; 2021-03-01 11:36:11.051
204.0; -187500.015625; -187500.015625; -187500.015625; -37175.7109375; -187500.015625; -187500.015625; -187500.015625; -187500.015625; -0.03200000151991844; 0.9540000557899475; 0.18200001120567322; 192.0; 0.0; 0.0; 0.0; 0.0; 0.0; 0.0; 0.0; 0.0; 0.0; 1.614587771051546E9; 2021-03-01 11:36:11.051
205.0; -38679.71484375; -42666.50390625; -177243.421875; 187500.0; -61812.65234375; -53147.3515625; -60600.1796875; -9103.8427734375; -0.03200000151991844; 0.9540000557899475; 0.18200001120567322; 192.0; 0.0; 0.0; 0.0; 0.0; 0.0; 0.0; 0.0; 0.0; 0.0; 1.6145877710515518E9; 2021-03-01 11:36:11.051
206.0; -187500.015625; -187500.015625; -187500.015625; -37182.73046875; -187500.015625; -187500.015625; -187500.015625; -187500.015625; -0.03200000151991844; 0.9540000557899475; 0.18200001120567322; 192.0; 0.0; 0.0; 0.0; 0.0; 0.0; 0.0; 0.0; 0.0; 0.0; 1.6145877710515575E9; 2021-03-01 11:36:11.051
207.0; -38671.625; -42684.296875; -177243.96875; 187500.0; -61819.625; -53166.26171875; -60602.4609375; -9125.6806640625; -0.03200000151991844; 0.9540000557899475; 0.18200001120567322; 192.0; 0.0; 0.0; 0.0; 0.0; 0.0; 0.0; 0.0; 0.0; 0.0; 1.6145877710515635E9; 2021-03-01 11:36:11.051
208.0; -187500.015625; -187500.015625; -187500.015625; -37169.31640625; -187500.015625; -187500.015625; -187500.015625; -187500.015625; -0.03200000151991844; 0.9540000557899475; 0.18200001120567322; 192.0; 0.0; 0.0; 0.0; 0.0; 0.0; 0.0; 0.0; 0.0; 0.0; 1.6145877710515692E9; 2021-03-01 11:36:11.051
209.0; -38683.44921875; -42680.25390625; -177240.46875; 187500.0; -61846.9375; -53177.63671875; -60620.9453125; -9080.41796875; -0.03200000151991844; 0.9540000557899475; 0.18200001120567322; 192.0; 0.0; 0.0; 0.0; 0.0; 0.0; 0.0; 0.0; 0.0; 0.0; 1.6145877710515752E9; 2021-03-01 11:36:11.051
210.0; -187500.015625; -187500.015625; -187500.015625; -37172.671875; -187500.015625; -187500.015625; -187500.015625; -187500.015625; -0.03200000151991844; 0.9540000557899475; 0.18200001120567322; 192.0; 0.0; 0.0; 0.0; 0.0; 0.0; 0.0; 0.0; 0.0; 0.0; 1.614587771051581E9; 2021-03-01 11:36:11.051
211.0; -38634.80859375; -42615.05078125; -177243.65625; 187500.0; -61785.828125; -53120.4609375; -60575.59375; -9188.3544921875; -0.03400000184774399; 0.9600000381469727; 0.18200001120567322; 192.0; 254.0; 240.0; 30.0; 0.0; 5.0; 176.0; 0.0; 0.0; 0.0; 1.6145877710515869E9; 2021-03-01 11:36:11.051
212.0; -187500.015625; -187500.015625; -187500.015625; -37176.984375; -187500.015625; -187500.015625; -187500.015625; -187500.015625; -0.03400000184774399; 0.9600000381469727; 0.18200001120567322; 192.0; 0.0; 0.0; 0.0; 0.0; 0.0; 0.0; 0.0; 0.0; 0.0; 1.6145877710515926E9; 2021-03-01 11:36:11.051
213.0; -38664.62890625; -42661.58984375; -177242.234375; 187500.0; -61825.63671875; -53172.02734375; -60627.2734375; -9164.4384765625; -0.03400000184774399; 0.9600000381469727; 0.18200001120567322; 192.0; 0.0; 0.0; 0.0; 0.0; 0.0; 0.0; 0.0; 0.0; 0.0; 1.6145877710515983E9; 2021-03-01 11:36:11.051
214.0; -187500.015625; -187500.015625; -187500.015625; -37165.3828125; -187500.015625; -187500.015625; -187500.015625; -187500.015625; -0.03400000184774399; 0.9600000381469727; 0.18200001120567322; 192.0; 0.0; 0.0; 0.0; 0.0; 0.0; 0.0; 0.0; 0.0; 0.0; 1.6145877710516043E9; 2021-03-01 11:36:11.051
215.0; -38618.47265625; -42619.65625; -177241.90625; 187500.0; -61802.83984375; -53111.8984375; -60591.33203125; -9206.9736328125; -0.03400000184774399; 0.9600000381469727; 0.18200001120567322; 192.0; 0.0; 0.0; 0.0; 0.0; 0.0; 0.0; 0.0; 0.0; 0.0; 1.61458777105161E9; 2021-03-01 11:36:11.051
216.0; -187500.015625; -187500.015625; -187500.015625; -37180.73828125; -187500.015625; -187500.015625; -187500.015625; -187500.015625; -0.03400000184774399; 0.9600000381469727; 0.18200001120567322; 192.0; 0.0; 0.0; 0.0; 0.0; 0.0; 0.0; 0.0; 0.0; 0.0; 1.6145877710516157E9; 2021-03-01 11:36:11.051
217.0; -38622.96484375; -42649.49609375; -177244.046875; 187500.0; -61796.78125; -53142.03125; -60599.578125; -9250.984375; -0.03400000184774399; 0.9600000381469727; 0.18200001120567322; 192.0; 0.0; 0.0; 0.0; 0.0; 0.0; 0.0; 0.0; 0.0; 0.0; 1.6145877710516217E9; 2021-03-01 11:36:11.051
218.0; -187500.015625; -187500.015625; -187500.015625; -37167.53125; -187500.015625; -187500.015625; -187500.015625; -187500.015625; -0.03400000184774399; 0.9600000381469727; 0.18200001120567322; 192.0; 0.0; 0.0; 0.0; 0.0; 0.0; 0.0; 0.0; 0.0; 0.0; 1.6145877710516276E9; 2021-03-01 11:36:11.051
219.0; -38635.28125; -42640.84765625; -177240.96875; 187500.0; -61835.62890625; -53177.76953125; -60641.375; -9173.177734375; -0.03400000184774399; 0.9600000381469727; 0.18200001120567322; 192.0; 0.0; 0.0; 0.0; 0.0; 0.0; 0.0; 0.0; 0.0; 0.0; 1.6145877710516336E9; 2021-03-01 11:36:11.051
220.0; -187500.015625; -187500.015625; -187500.015625; -37170.234375; -187500.015625; -187500.015625; -187500.015625; -187500.015625; -0.03400000184774399; 0.9600000381469727; 0.18200001120567322; 192.0; 0.0; 0.0; 0.0; 0.0; 0.0; 0.0; 0.0; 0.0; 0.0; 1.61458777105164E9; 2021-03-01 11:36:11.051
221.0; -38566.79296875; -42571.82421875; -177242.375; 187500.0; -61781.515625; -53125.98046875; -60575.125; -9215.9365234375; -0.036000002175569534; 0.9720000624656677; 0.18400001525878906; 192.0; 254.0; 224.0; 30.0; 96.0; 5.0; 192.0; 0.0; 0.0; 0.0; 1.614587771051646E9; 2021-03-01 11:36:11.051
222.0; -187500.015625; -187500.015625; -187500.015625; -37169.80859375; -187500.015625; -187500.015625; -187500.015625; -187500.015625; -0.036000002175569534; 0.9720000624656677; 0.18400001525878906; 192.0; 0.0; 0.0; 0.0; 0.0; 0.0; 0.0; 0.0; 0.0; 0.0; 1.6145877710516548E9; 2021-03-01 11:36:11.051
223.0; -38586.6875; -42582.6640625; -177238.703125; 187500.0; -61834.0859375; -53174.28515625; -60626.19921875; -9126.6640625; -0.036000002175569534; 0.9720000624656677; 0.18400001525878906; 192.0; 0.0; 0.0; 0.0; 0.0; 0.0; 0.0; 0.0; 0.0; 0.0; 1.6145877710516605E9; 2021-03-01 11:36:11.051
224.0; -187500.015625; -187500.015625; -187500.015625; -37154.2734375; -187500.015625; -187500.015625; -187500.015625; -187500.015625; -0.036000002175569534; 0.9720000624656677; 0.18400001525878906; 192.0; 0.0; 0.0; 0.0; 0.0; 0.0; 0.0; 0.0; 0.0; 0.0; 1.6145877710516665E9; 2021-03-01 11:36:11.051
225.0; -38548.7109375; -42565.3203125; -177236.5; 187500.0; -61810.484375; -53139.81640625; -60605.9921875; -9112.984375; -0.036000002175569534; 0.9720000624656677; 0.18400001525878906; 192.0; 0.0; 0.0; 0.0; 0.0; 0.0; 0.0; 0.0; 0.0; 0.0; 1.6145877710516725E9; 2021-03-01 11:36:11.051
226.0; -187500.015625; -187500.015625; -187500.015625; -37166.27734375; -187500.015625; -187500.015625; -187500.015625; -187500.015625; -0.036000002175569534; 0.9720000624656677; 0.18400001525878906; 192.0; 0.0; 0.0; 0.0; 0.0; 0.0; 0.0; 0.0; 0.0; 0.0; 1.614587771051678E9; 2021-03-01 11:36:11.051
0.0; -93750.0078125; -93750.0078125; -93750.0078125; -18578.6796875; -93750.0078125; -93750.0078125; -93750.0078125; -93750.0078125; -0.036000002175569534; 0.9720000624656677; 0.18400001525878906; 192.0; 0.0; 0.0; 0.0; 0.0; 0.0; 0.0; 0.0; 0.0; 0.0; 1.6145877711474352E9; 2021-03-01 11:36:11.147
1.0; -20898.6796875; -20513.24609375; -22009.806640625; 93749.984375; -32503.1015625; -26125.65625; -30272.240234375; -83459.0859375; -0.12800000607967377; 0.9480000734329224; 0.20800000429153442; 192.0; 252.0; 0.0; 29.0; 160.0; 6.0; 128.0; 0.0; 0.0; 0.0; 1.6145877716327772E9; 2021-03-01 11:36:11.632
2.0; -187500.015625; -187500.015625; -187500.015625; -26788.720703125; -187500.015625; -187500.015625; -187500.015625; -185765.28125; -0.12800000607967377; 0.9480000734329224; 0.20800000429153442; 192.0; 0.0; 0.0; 0.0; 0.0; 0.0; 0.0; 0.0; 0.0; 0.0; 1.6145877716327853E9; 2021-03-01 11:36:11.632
3.0; -41786.5859375; -41054.5859375; -44101.66796875; 187500.0; -65026.40625; -52285.7109375; -60573.671875; -166869.0625; -0.12800000607967377; 0.9480000734329224; 0.20800000429153442; 192.0; 0.0; 0.0; 0.0; 0.0; 0.0; 0.0; 0.0; 0.0; 0.0; 1.6145877716327915E9; 2021-03-01 11:36:11.632
4.0; -187500.015625; -187500.015625; -187500.015625; -26785.30078125; -187500.015625; -187500.015625; -187500.015625; -185755.546875; -0.12800000607967377; 0.9480000734329224; 0.20800000429153442; 192.0; 0.0; 0.0; 0.0; 0.0; 0.0; 0.0; 0.0; 0.0; 0.0; 1.614587771632798E9; 2021-03-01 11:36:11.632
5.0; -41811.39453125; -41105.953125; -44209.9375; 187500.0; -65062.08203125; -52314.30078125; -60626.625; -166676.796875; -0.12800000607967377; 0.9480000734329224; 0.20800000429153442; 192.0; 0.0; 0.0; 0.0; 0.0; 0.0; 0.0; 0.0; 0.0; 0.0; 1.6145877716328042E9; 2021-03-01 11:36:11.632
6.0; -187500.015625; -187500.015625; -187500.015625; -26792.4765625; -187500.015625; -187500.015625; -187500.015625; -185760.25; -0.12800000607967377; 0.9480000734329224; 0.20800000429153442; 192.0; 0.0; 0.0; 0.0; 0.0; 0.0; 0.0; 0.0; 0.0; 0.0; 1.6145877716328104E9; 2021-03-01 11:36:11.632
7.0; -41759.65234375; -41054.7890625; -44209.828125; 187500.0; -65013.5546875; -52250.12890625; -60577.58203125; -166830.0625; -0.12800000607967377; 0.9480000734329224; 0.20800000429153442; 192.0; 0.0; 0.0; 0.0; 0.0; 0.0; 0.0; 0.0; 0.0; 0.0; 1.6145877716328166E9; 2021-03-01 11:36:11.632
8.0; -187500.015625; -187500.015625; -187500.015625; -26793.50390625; -187500.015625; -187500.015625; -187500.015625; -185761.40625; -0.1940000057220459; 0.9320000410079956; 0.22200001776218414; 192.0; 249.0; 240.0; 29.0; 32.0; 6.0; 240.0; 0.0; 0.0; 0.0; 1.6145877716328228E9; 2021-03-01 11:36:11.632
9.0; -41801.4921875; -41114.1328125; -44312.15234375; 187500.0; -65063.04296875; -52326.01171875; -60647.41015625; -166658.671875; -0.1940000057220459; 0.9320000410079956; 0.22200001776218414; 192.0; 0.0; 0.0; 0.0; 0.0; 0.0; 0.0; 0.0; 0.0; 0.0; 1.6145877716328292E9; 2021-03-01 11:36:11.632
10.0; -187500.015625; -187500.015625; -187500.015625; -26788.318359375; -187500.015625; -187500.015625; -187500.015625; -185747.75; -0.1940000057220459; 0.9320000410079956; 0.22200001776218414; 192.0; 0.0; 0.0; 0.0; 0.0; 0.0; 0.0; 0.0; 0.0; 0.0; 1.6145877716328351E9; 2021-03-01 11:36:11.632
11.0; -41730.86328125; -41077.96875; -44329.56640625; 187500.0; -65029.046875; -52298.3203125; -60587.171875; -166830.421875; -0.1940000057220459; 0.9320000410079956; 0.22200001776218414; 192.0; 0.0; 0.0; 0.0; 0.0; 0.0; 0.0; 0.0; 0.0; 0.0; 1.6145877716328413E9; 2021-03-01 11:36:11.632
12.0; -187500.015625; -187500.015625; -187500.015625; -26795.42578125; -187500.015625; -187500.015625; -187500.015625; -185756.765625; -0.1940000057220459; 0.9320000410079956; 0.22200001776218414; 192.0; 0.0; 0.0; 0.0; 0.0; 0.0; 0.0; 0.0; 0.0; 0.0; 1.6145877716328475E9; 2021-03-01 11:36:11.632
13.0; -41666.4453125; -41075.30859375; -44391.48046875; 187500.0; -65035.9296875; -52273.015625; -60603.17578125; -166838.4375; -0.1940000057220459; 0.9320000410079956; 0.22200001776218414; 192.0; 0.0; 0.0; 0.0; 0.0; 0.0; 0.0; 0.0; 0.0; 0.0; 1.6145877716328537E9; 2021-03-01 11:36:11.632
14.0; -187500.015625; -187500.015625; -187500.015625; -26786.91015625; -187500.015625; -187500.015625; -187500.015625; -185741.3125; -0.1940000057220459; 0.9320000410079956; 0.22200001776218414; 192.0; 0.0; 0.0; 0.0; 0.0; 0.0; 0.0; 0.0; 0.0; 0.0; 1.61458777163286E9; 2021-03-01 11:36:11.632
15.0; -41654.10546875; -41127.03125; -44495.7265625; 187500.0; -65082.109375; -52327.2421875; -60643.5234375; -166611.96875; -0.1940000057220459; 0.9320000410079956; 0.22200001776218414; 192.0; 0.0; 0.0; 0.0; 0.0; 0.0; 0.0; 0.0; 0.0; 0.0; 1.614587771632866E9; 2021-03-01 11:36:11.632
16.0; -187500.015625; -187500.015625; -187500.015625; -26789.458984375; -187500.015625; -187500.015625; -187500.015625; -185741.265625; -0.1940000057220459; 0.9320000410079956; 0.22200001776218414; 192.0; 0.0; 0.0; 0.0; 0.0; 0.0; 0.0; 0.0; 0.0; 0.0; 1.6145877716328723E9; 2021-03-01 11:36:11.632
17.0; -41338.609375; -41080.203125; -44477.2421875; 187500.0; -65018.49609375; -52273.5078125; -60583.4609375; -166827.296875; -0.2120000123977661; 0.9280000329017639; 0.23000000417232513; 192.0; 249.0; 96.0; 29.0; 0.0; 7.0; 48.0; 0.0; 0.0; 0.0; 1.6145877716328783E9; 2021-03-01 11:36:11.632
18.0; -187500.015625; -187500.015625; -187500.015625; -26790.80078125; -187500.015625; -187500.015625; -187500.015625; -185743.1875; -0.2120000123977661; 0.9280000329017639; 0.23000000417232513; 192.0; 0.0; 0.0; 0.0; 0.0; 0.0; 0.0; 0.0; 0.0; 0.0; 1.614587771632892E9; 2021-03-01 11:36:11.632
19.0; -41026.15625; -41163.44140625; -44592.35546875; 187500.0; -65099.23046875; -52350.82421875; -60678.30078125; -166685.984375; -0.2120000123977661; 0.9280000329017639; 0.23000000417232513; 192.0; 0.0; 0.0; 0.0; 0.0; 0.0; 0.0; 0.0; 0.0; 0.0; 1.6145877716328983E9; 2021-03-01 11:36:11.632
20.0; -187500.015625; -187500.015625; -187500.015625; -26786.396484375; -187500.015625; -187500.015625; -187500.015625; -185731.796875; -0.2120000123977661; 0.9280000329017639; 0.23000000417232513; 192.0; 0.0; 0.0; 0.0; 0.0; 0.0; 0.0; 0.0; 0.0; 0.0; 1.6145877716329043E9; 2021-03-01 11:36:11.632
21.0; -40722.8203125; -41083.48828125; -44547.1796875; 187500.0; -65026.65234375; -52281.3984375; -60626.71484375; -166906.296875; -0.2120000123977661; 0.9280000329017639; 0.23000000417232513; 192.0; 0.0; 0.0; 0.0; 0.0; 0.0; 0.0; 0.0; 0.0; 0.0; 1.6145877716329107E9; 2021-03-01 11:36:11.632
22.0; -187500.015625; -187500.015625; -187500.015625; -26793.99609375; -187500.015625; -187500.015625; -187500.015625; -185743.421875; -0.2120000123977661; 0.9280000329017639; 0.23000000417232513; 192.0; 0.0; 0.0; 0.0; 0.0; 0.0; 0.0; 0.0; 0.0; 0.0; 1.6145877716329167E9; 2021-03-01 11:36:11.632
23.0; -40549.19140625; -41121.5546875; -44582.85546875; 187500.0; -65046.79296875; -52308.53515625; -60650.1171875; -166929.421875; -0.2120000123977661; 0.9280000329017639; 0.23000000417232513; 192.0; 0.0; 0.0; 0.0; 0.0; 0.0; 0.0; 0.0; 0.0; 0.0; 1.6145877716329231E9; 2021-03-01 11:36:11.632
24.0; -187500.015625; -187500.015625; -187500.015625; -26786.642578125; -187500.015625; -187500.015625; -187500.015625; -185732.078125; -0.2120000123977661; 0.9280000329017639; 0.23000000417232513; 192.0; 0.0; 0.0; 0.0; 0.0; 0.0; 0.0; 0.0; 0.0; 0.0; 1.614587771632929E9; 2021-03-01 11:36:11.632
25.0; -40445.1015625; -41135.6796875; -44625.16796875; 187500.0; -65070.1953125; -52344.453125; -60685.72265625; -166787.34375; -0.2120000123977661; 0.9280000329017639; 0.23000000417232513; 192.0; 0.0; 0.0; 0.0; 0.0; 0.0; 0.0; 0.0; 0.0; 0.0; 1.6145877716329355E9; 2021-03-01 11:36:11.632
26.0; -187500.015625; -187500.015625; -187500.015625; -26786.93359375; -187500.015625; -187500.015625; -187500.015625; -185732.0; -0.2120000123977661; 0.9280000329017639; 0.23000000417232513; 192.0; 0.0; 0.0; 0.0; 0.0; 0.0; 0.0; 0.0; 0.0; 0.0; 1.6145877716329415E9; 2021-03-01 11:36:11.632
27.0; -40272.43359375; -41063.953125; -44553.57421875; 187500.0; -64958.34765625; -52258.12890625; -60595.1953125; -166801.0; -0.23000000417232513; 0.9300000667572021; 0.23800000548362732; 192.0; 248.0; 208.0; 29.0; 16.0; 7.0; 112.0; 0.0; 0.0; 0.0; 1.6145877716329477E9; 2021-03-01 11:36:11.632
28.0; -187500.015625; -187500.015625; -187500.015625; -26786.978515625; -187500.015625; -187500.015625; -187500.015625; -185735.328125; -0.23000000417232513; 0.9300000667572021; 0.23800000548362732; 192.0; 0.0; 0.0; 0.0; 0.0; 0.0; 0.0; 0.0; 0.0; 0.0; 1.614587771632954E9; 2021-03-01 11:36:11.632
29.0; -40336.60546875; -41145.9375; -44649.6875; 187500.0; -65040.6015625; -52335.109375; -60693.6796875; -166658.46875; -0.23000000417232513; 0.9300000667572021; 0.23800000548362732; 192.0; 0.0; 0.0; 0.0; 0.0; 0.0; 0.0; 0.0; 0.0; 0.0; 1.6145877716329603E9; 2021-03-01 11:36:11.632
30.0; -187500.015625; -187500.015625; -187500.015625; -26776.31640625; -187500.015625; -187500.015625; -187500.015625; -185719.390625; -0.23000000417232513; 0.9300000667572021; 0.23800000548362732; 192.0; 0.0; 0.0; 0.0; 0.0; 0.0; 0.0; 0.0; 0.0; 0.0; 1.6145877716329665E9; 2021-03-01 11:36:11.632
31.0; -40253.0078125; -41089.3203125; -44611.734375; 187500.0; -64961.4765625; -52267.765625; -60626.6015625; -166869.203125; -0.23000000417232513; 0.9300000667572021; 0.23800000548362732; 192.0; 0.0; 0.0; 0.0; 0.0; 0.0; 0.0; 0.0; 0.0; 0.0; 1.6145877716329727E9; 2021-03-01 11:36:11.632
32.0; -187500.015625; -187500.015625; -187500.015625; -26782.88671875; -187500.015625; -187500.015625; -187500.015625; -185731.125; -0.23000000417232513; 0.9300000667572021; 0.23800000548362732; 192.0; 0.0; 0.0; 0.0; 0.0; 0.0; 0.0; 0.0; 0.0; 0.0; 1.614587771632979E9; 2021-03-01 11:36:11.632
33.0; -40267.8515625; -41110.5546875; -44648.0546875; 187500.0; -64945.18359375; -52274.6953125; -60625.91015625; -166927.8125; -0.23000000417232513; 0.9300000667572021; 0.23800000548362732; 192.0; 0.0; 0.0; 0.0; 0.0; 0.0; 0.0; 0.0; 0.0; 0.0; 1.6145877716329849E9; 2021-03-01 11:36:11.632
34.0; -187500.015625; -187500.015625; -187500.015625; -26774.349609375; -187500.015625; -187500.015625; -187500.015625; -185721.0; -0.23000000417232513; 0.9300000667572021; 0.23800000548362732; 192.0; 0.0; 0.0; 0.0; 0.0; 0.0; 0.0; 0.0; 0.0; 0.0; 1.6145877716329913E9; 2021-03-01 11:36:11.632
35.0; -40241.83203125; -41155.55078125; -44708.3828125; 187500.0; -65007.18359375; -52297.40234375; -60674.390625; -166792.640625; -0.23000000417232513; 0.9300000667572021; 0.23800000548362732; 192.0; 0.0; 0.0; 0.0; 0.0; 0.0; 0.0; 0.0; 0.0; 0.0; 1.6145877716329975E9; 2021-03-01 11:36:11.632
36.0; -187500.015625; -187500.015625; -187500.015625; -26772.248046875; -187500.015625; -187500.015625; -187500.015625; -185719.625; -0.23000000417232513; 0.9300000667572021; 0.23800000548362732; 192.0; 0.0; 0.0; 0.0; 0.0; 0.0; 0.0; 0.0; 0.0; 0.0; 1.6145877716330037E9; 2021-03-01 11:36:11.633
37.0; -40179.96484375; -41122.44921875; -44705.6328125; 187500.0; -64956.4453125; -52275.609375; -60662.3203125; -166791.375; -0.2540000081062317; 0.9420000314712524; 0.26200002431869507; 192.0; 248.0; 16.0; 29.0; 112.0; 8.0; 48.0; 0.0; 0.0; 0.0; 1.6145877716330097E9; 2021-03-01 11:36:11.633
38.0; -187500.015625; -187500.015625; -187500.015625; -26770.548828125; -187500.015625; -187500.015625; -187500.015625; -185723.390625; -0.2540000081062317; 0.9420000314712524; 0.26200002431869507; 192.0; 0.0; 0.0; 0.0; 0.0; 0.0; 0.0; 0.0; 0.0; 0.0; 1.614587771633016E9; 2021-03-01 11:36:11.633
39.0; -40167.8046875; -41155.4375; -44750.91796875; 187500.0; -65005.57421875; -52312.48828125; -60712.38671875; -166706.546875; -0.2540000081062317; 0.9420000314712524; 0.26200002431869507; 192.0; 0.0; 0.0; 0.0; 0.0; 0.0; 0.0; 0.0; 0.0; 0.0; 1.614587771633022E9; 2021-03-01 11:36:11.633
40.0; -187500.015625; -187500.015625; -187500.015625; -26763.060546875; -187500.015625; -187500.015625; -187500.015625; -185713.59375; -0.2540000081062317; 0.9420000314712524; 0.26200002431869507; 192.0; 0.0; 0.0; 0.0; 0.0; 0.0; 0.0; 0.0; 0.0; 0.0; 1.6145877716330285E9; 2021-03-01 11:36:11.633
41.0; -40150.078125; -41112.87890625; -44709.9921875; 187500.0; -65032.6875; -52253.5703125; -60659.75; -166931.359375; -0.2540000081062317; 0.9420000314712524; 0.26200002431869507; 192.0; 0.0; 0.0; 0.0; 0.0; 0.0; 0.0; 0.0; 0.0; 0.0; 1.6145877716330376E9; 2021-03-01 11:36:11.633
42.0; -187500.015625; -187500.015625; -187500.015625; -26766.771484375; -187500.015625; -187500.015625; -187500.015625; -185724.8125; -0.2540000081062317; 0.9420000314712524; 0.26200002431869507; 192.0; 0.0; 0.0; 0.0; 0.0; 0.0; 0.0; 0.0; 0.0; 0.0; 1.6145877716330435E9; 2021-03-01 11:36:11.633
43.0; -40147.57421875; -41144.57421875; -44746.55859375; 187500.0; -65091.36328125; -52281.35546875; -60689.85546875; -167020.0; -0.2540000081062317; 0.9420000314712524; 0.26200002431869507; 192.0; 0.0; 0.0; 0.0; 0.0; 0.0; 0.0; 0.0; 0.0; 0.0; 1.6145877716330497E9; 2021-03-01 11:36:11.633
44.0; -187500.015625; -187500.015625; -187500.015625; -26753.046875; -187500.015625; -187500.015625; -187500.015625; -185710.84375; -0.2540000081062317; 0.9420000314712524; 0.26200002431869507; 192.0; 0.0; 0.0; 0.0; 0.0; 0.0; 0.0; 0.0; 0.0; 0.0; 1.614587771633056E9; 2021-03-01 11:36:11.633
45.0; -40120.93359375; -41177.76953125; -44781.3828125; 187500.0; -65158.640625; -52317.25; -60736.08203125; -166923.0625; -0.2540000081062317; 0.9420000314712524; 0.26200002431869507; 192.0; 0.0; 0.0; 0.0; 0.0; 0.0; 0.0; 0.0; 0.0; 0.0; 1.6145877716330621E9; 2021-03-01 11:36:11.633
46.0; -187500.015625; -187500.015625; -187500.015625; -26754.166015625; -187500.015625; -187500.015625; -187500.015625; -185715.109375; -0.2540000081062317; 0.9420000314712524; 0.26200002431869507; 192.0; 0.0; 0.0; 0.0; 0.0; 0.0; 0.0; 0.0; 0.0; 0.0; 1.6145877716330683E9; 2021-03-01 11:36:11.633
47.0; -40007.7890625; -41117.3046875; -44719.7578125; 187500.0; -65123.68359375; -52235.4453125; -60678.8359375; -166986.03125; -0.242000013589859; 0.9300000667572021; 0.2580000162124634; 192.0; 248.0; 112.0; 29.0; 16.0; 8.0; 16.0; 0.0; 0.0; 0.0; 1.6145877716330905E9; 2021-03-01 11:36:11.633
48.0; -187500.015625; -187500.015625; -187500.015625; -26750.767578125; -187500.015625; -187500.015625; -187500.015625; -185719.078125; -0.242000013589859; 0.9300000667572021; 0.2580000162124634; 192.0; 0.0; 0.0; 0.0; 0.0; 0.0; 0.0; 0.0; 0.0; 0.0; 1.6145877716330965E9; 2021-03-01 11:36:11.633
49.0; -40001.328125; -41172.91796875; -44762.16015625; 187500.0; -65184.3671875; -52261.08203125; -60714.375; -166926.890625; -0.242000013589859; 0.9300000667572021; 0.2580000162124634; 192.0; 0.0; 0.0; 0.0; 0.0; 0.0; 0.0; 0.0; 0.0; 0.0; 1.6145877716331024E9; 2021-03-01 11:36:11.633
50.0; -187500.015625; -187500.015625; -187500.015625; -26743.50390625; -187500.015625; -187500.015625; -187500.015625; -185710.5625; -0.242000013589859; 0.9300000667572021; 0.2580000162124634; 192.0; 0.0; 0.0; 0.0; 0.0; 0.0; 0.0; 0.0; 0.0; 0.0; 1.614587771633108E9; 2021-03-01 11:36:11.633
51.0; -39933.109375; -41157.91796875; -44730.265625; 187500.0; -65183.96484375; -52266.0; -60651.12109375; -166951.046875; -0.242000013589859; 0.9300000667572021; 0.2580000162124634; 192.0; 0.0; 0.0; 0.0; 0.0; 0.0; 0.0; 0.0; 0.0; 0.0; 1.614587771633114E9; 2021-03-01 11:36:11.633
52.0; -187500.015625; -187500.015625; -187500.015625; -26747.458984375; -187500.015625; -187500.015625; -187500.015625; -185723.65625; -0.242000013589859; 0.9300000667572021; 0.2580000162124634; 192.0; 0.0; 0.0; 0.0; 0.0; 0.0; 0.0; 0.0; 0.0; 0.0; 1.6145877716331198E9; 2021-03-01 11:36:11.633
53.0; -39884.18359375; -41162.8359375; -44718.91015625; 187500.0; -65190.671875; -52263.2265625; -60660.80078125; -166968.78125; -0.242000013589859; 0.9300000667572021; 0.2580000162124634; 192.0; 0.0; 0.0; 0.0; 0.0; 0.0; 0.0; 0.0; 0.0; 0.0; 1.6145877716331255E9; 2021-03-01 11:36:11.633
54.0; -187500.015625; -187500.015625; -187500.015625; -26736.08203125; -187500.015625; -187500.015625; -187500.015625; -185713.234375; -0.242000013589859; 0.9300000667572021; 0.2580000162124634; 192.0; 0.0; 0.0; 0.0; 0.0; 0.0; 0.0; 0.0; 0.0; 0.0; 1.6145877716331315E9; 2021-03-01 11:36:11.633
55.0; -39863.91015625; -41183.6015625; -44727.9609375; 187500.0; -65213.984375; -52287.94921875; -60684.0; -166886.96875; -0.242000013589859; 0.9300000667572021; 0.2580000162124634; 192.0; 0.0; 0.0; 0.0; 0.0; 0.0; 0.0; 0.0; 0.0; 0.0; 1.6145877716331372E9; 2021-03-01 11:36:11.633
56.0; -187500.015625; -187500.015625; -187500.015625; -26735.189453125; -187500.015625; -187500.015625; -187500.015625; -185715.65625; -0.25200000405311584; 0.9220000505447388; 0.24800001084804535; 192.0; 248.0; 32.0; 28.0; 208.0; 7.0; 192.0; 0.0; 0.0; 0.0; 1.6145877716331432E9; 2021-03-01 11:36:11.633
57.0; -39782.7734375; -41147.7265625; -44672.0625; 187500.0; -65177.9296875; -52250.84375; -60637.33203125; -166953.484375; -0.25200000405311584; 0.9220000505447388; 0.24800001084804535; 192.0; 0.0; 0.0; 0.0; 0.0; 0.0; 0.0; 0.0; 0.0; 0.0; 1.614587771633149E9; 2021-03-01 11:36:11.633
58.0; -187500.015625; -187500.015625; -187500.015625; -26734.541015625; -187500.015625; -187500.015625; -187500.015625; -185721.28125; -0.25200000405311584; 0.9220000505447388; 0.24800001084804535; 192.0; 0.0; 0.0; 0.0; 0.0; 0.0; 0.0; 0.0; 0.0; 0.0; 1.6145877716331549E9; 2021-03-01 11:36:11.633
59.0; -39792.40625; -41186.6875; -44707.46484375; 187500.0; -65225.71875; -52301.671875; -60684.0234375; -166870.3125; -0.25200000405311584; 0.9220000505447388; 0.24800001084804535; 192.0; 0.0; 0.0; 0.0; 0.0; 0.0; 0.0; 0.0; 0.0; 0.0; 1.6145877716331608E9; 2021-03-01 11:36:11.633
60.0; -187500.015625; -187500.015625; -187500.015625; -26725.578125; -187500.015625; -187500.015625; -187500.015625; -185709.84375; -0.25200000405311584; 0.9220000505447388; 0.24800001084804535; 192.0; 0.0; 0.0; 0.0; 0.0; 0.0; 0.0; 0.0; 0.0; 0.0; 1.6145877716331666E9; 2021-03-01 11:36:11.633
61.0; -39727.140625; -41171.44140625; -44646.04296875; 187500.0; -65197.82421875; -52240.5390625; -60652.1484375; -166865.53125; -0.25200000405311584; 0.9220000505447388; 0.24800001084804535; 192.0; 0.0; 0.0; 0.0; 0.0; 0.0; 0.0; 0.0; 0.0; 0.0; 1.6145877716331725E9; 2021-03-01 11:36:11.633
62.0; -187500.015625; -187500.015625; -187500.015625; -26736.283203125; -187500.015625; -187500.015625; -187500.015625; -185727.515625; -0.25200000405311584; 0.9220000505447388; 0.24800001084804535; 192.0; 0.0; 0.0; 0.0; 0.0; 0.0; 0.0; 0.0; 0.0; 0.0; 1.6145877716331785E9; 2021-03-01 11:36:11.633
63.0; -39689.92578125; -41171.421875; -44618.73046875; 187500.0; -65209.9609375; -52242.640625; -60649.64453125; -166938.46875; -0.25200000405311584; 0.9220000505447388; 0.24800001084804535; 192.0; 0.0; 0.0; 0.0; 0.0; 0.0; 0.0; 0.0; 0.0; 0.0; 1.614587771633184E9; 2021-03-01 11:36:11.633
64.0; -187500.015625; -187500.015625; -187500.015625; -26730.00390625; -187500.015625; -187500.015625; -187500.015625; -185719.90625; -0.25200000405311584; 0.9220000505447388; 0.24800001084804535; 192.0; 0.0; 0.0; 0.0; 0.0; 0.0; 0.0; 0.0; 0.0; 0.0; 1.6145877716331923E9; 2021-03-01 11:36:11.633
65.0; -39695.7578125; -41199.11328125; -44637.3046875; 187500.0; -65249.61328125; -52283.87890625; -60669.984375; -166813.296875; -0.25200000405311584; 0.9220000505447388; 0.24800001084804535; 192.0; 0.0; 0.0; 0.0; 0.0; 0.0; 0.0; 0.0; 0.0; 0.0; 1.6145877716331985E9; 2021-03-01 11:36:11.633
66.0; -187500.015625; -187500.015625; -187500.015625; -26730.986328125; -187500.015625; -187500.015625; -187500.015625; -185721.15625; -0.24400001764297485; 0.9240000247955322; 0.24800001084804535; 192.0; 248.0; 96.0; 28.0; 224.0; 7.0; 192.0; 0.0; 0.0; 0.0; 1.6145877716332045E9; 2021-03-01 11:36:11.633
67.0; -39629.21875; -41153.44921875; -44583.94921875; 187500.0; -65220.01953125; -52251.625; -60633.796875; -166849.78125; -0.24400001764297485; 0.9240000247955322; 0.24800001084804535; 192.0; 0.0; 0.0; 0.0; 0.0; 0.0; 0.0; 0.0; 0.0; 0.0; 1.61458777163321E9; 2021-03-01 11:36:11.633
68.0; -187500.015625; -187500.015625; -187500.015625; -26731.857421875; -187500.015625; -187500.015625; -187500.015625; -185725.796875; -0.24400001764297485; 0.9240000247955322; 0.24800001084804535; 192.0; 0.0; 0.0; 0.0; 0.0; 0.0; 0.0; 0.0; 0.0; 0.0; 1.614587771633216E9; 2021-03-01 11:36:11.633
69.0; -39654.71875; -41201.68359375; -44625.45703125; 187500.0; -65305.9375; -52298.07421875; -60674.078125; -166760.296875; -0.24400001764297485; 0.9240000247955322; 0.24800001084804535; 192.0; 0.0; 0.0; 0.0; 0.0; 0.0; 0.0; 0.0; 0.0; 0.0; 1.6145877716332219E9; 2021-03-01 11:36:11.633
70.0; -187500.015625; -187500.015625; -187500.015625; -26726.068359375; -187500.015625; -187500.015625; -187500.015625; -185714.5625; -0.24400001764297485; 0.9240000247955322; 0.24800001084804535; 192.0; 0.0; 0.0; 0.0; 0.0; 0.0; 0.0; 0.0; 0.0; 0.0; 1.6145877716332276E9; 2021-03-01 11:36:11.633
71.0; -39628.74609375; -41188.83203125; -44609.140625; 187500.0; -65321.98828125; -52266.84765625; -60664.66796875; -166727.15625; -0.24400001764297485; 0.9240000247955322; 0.24800001084804535; 192.0; 0.0; 0.0; 0.0; 0.0; 0.0; 0.0; 0.0; 0.0; 0.0; 1.6145877716332335E9; 2021-03-01 11:36:11.633
72.0; -187500.015625; -187500.015625; -187500.015625; -26730.47265625; -187500.015625; -187500.015625; -187500.015625; -185723.296875; -0.24400001764297485; 0.9240000247955322; 0.24800001084804535; 192.0; 0.0; 0.0; 0.0; 0.0; 0.0; 0.0; 0.0; 0.0; 0.0; 1.6145877716332393E9; 2021-03-01 11:36:11.633
73.0; -39608.20703125; -41198.6015625; -44608.06640625; 187500.0; -65359.29296875; -52257.81640625; -60660.15234375; -166721.484375; -0.24400001764297485; 0.9240000247955322; 0.24800001084804535; 192.0; 0.0; 0.0; 0.0; 0.0; 0.0; 0.0; 0.0; 0.0; 0.0; 1.6145877716332452E9; 2021-03-01 11:36:11.633
74.0; -187500.015625; -187500.015625; -187500.015625; -26728.482421875; -187500.015625; -187500.015625; -187500.015625; -185717.546875; -0.24400001764297485; 0.9240000247955322; 0.24800001084804535; 192.0; 0.0; 0.0; 0.0; 0.0; 0.0; 0.0; 0.0; 0.0; 0.0; 1.614587771633251E9; 2021-03-01 11:36:11.633
75.0; -39642.3828125; -41234.38671875; -44635.44921875; 187500.0; -65417.47265625; -52290.71875; -60690.50390625; -166693.3125; -0.24400001764297485; 0.9240000247955322; 0.24800001084804535; 192.0; 0.0; 0.0; 0.0; 0.0; 0.0; 0.0; 0.0; 0.0; 0.0; 1.614587771633257E9; 2021-03-01 11:36:11.633
76.0; -187500.015625; -187500.015625; -187500.015625; -26730.80859375; -187500.015625; -187500.015625; -187500.015625; -185718.0; -0.24800001084804535; 0.9100000262260437; 0.25200000405311584; 192.0; 248.0; 64.0; 28.0; 112.0; 7.0; 224.0; 0.0; 0.0; 0.0; 1.6145877716332629E9; 2021-03-01 11:36:11.633
77.0; -39633.640625; -41182.8203125; -44594.90234375; 187500.0; -65444.38671875; -52229.5859375; -60658.296875; -166924.765625; -0.24800001084804535; 0.9100000262260437; 0.25200000405311584; 192.0; 0.0; 0.0; 0.0; 0.0; 0.0; 0.0; 0.0; 0.0; 0.0; 1.6145877716332688E9; 2021-03-01 11:36:11.633
78.0; -187500.015625; -187500.015625; -187500.015625; -26730.40625; -187500.015625; -187500.015625; -187500.015625; -185720.03125; -0.24800001084804535; 0.9100000262260437; 0.25200000405311584; 192.0; 0.0; 0.0; 0.0; 0.0; 0.0; 0.0; 0.0; 0.0; 0.0; 1.6145877716332743E9; 2021-03-01 11:36:11.633
79.0; -39580.51171875; -41252.87109375; -44638.7109375; 187500.0; -65557.2421875; -52279.0078125; -60706.44140625; -166838.78125; -0.24800001084804535; 0.9100000262260437; 0.25200000405311584; 192.0; 0.0; 0.0; 0.0; 0.0; 0.0; 0.0; 0.0; 0.0; 0.0; 1.6145877716332805E9; 2021-03-01 11:36:11.633
80.0; -187500.015625; -187500.015625; -187500.015625; -26723.611328125; -187500.015625; -187500.015625; -187500.015625; -185706.9375; -0.24800001084804535; 0.9100000262260437; 0.25200000405311584; 192.0; 0.0; 0.0; 0.0; 0.0; 0.0; 0.0; 0.0; 0.0; 0.0; 1.6145877716332862E9; 2021-03-01 11:36:11.633
81.0; -39496.08984375; -41235.14453125; -44615.5546875; 187500.0; -65563.4296875; -52277.01953125; -60697.0546875; -166769.328125; -0.24800001084804535; 0.9100000262260437; 0.25200000405311584; 192.0; 0.0; 0.0; 0.0; 0.0; 0.0; 0.0; 0.0; 0.0; 0.0; 1.6145877716332948E9; 2021-03-01 11:36:11.633
82.0; -187500.015625; -187500.015625; -187500.015625; -26733.244140625; -187500.015625; -187500.015625; -187500.015625; -185719.453125; -0.24800001084804535; 0.9100000262260437; 0.25200000405311584; 192.0; 0.0; 0.0; 0.0; 0.0; 0.0; 0.0; 0.0; 0.0; 0.0; 1.6145877716333005E9; 2021-03-01 11:36:11.633
83.0; -39492.7578125; -41213.30859375; -44611.64453125; 187500.0; -65569.265625; -52273.3984375; -60691.33203125; -166786.140625; -0.24800001084804535; 0.9100000262260437; 0.25200000405311584; 192.0; 0.0; 0.0; 0.0; 0.0; 0.0; 0.0; 0.0; 0.0; 0.0; 1.6145877716333065E9; 2021-03-01 11:36:11.633
84.0; -187500.015625; -187500.015625; -187500.015625; -26728.595703125; -187500.015625; -187500.015625; -187500.015625; -185710.796875; -0.24800001084804535; 0.9100000262260437; 0.25200000405311584; 192.0; 0.0; 0.0; 0.0; 0.0; 0.0; 0.0; 0.0; 0.0; 0.0; 1.6145877716333125E9; 2021-03-01 11:36:11.633
85.0; -39557.24609375; -41258.61328125; -44667.72265625; 187500.0; -65603.375; -52331.35546875; -60741.48828125; -166658.125; -0.24800001084804535; 0.9100000262260437; 0.25200000405311584; 192.0; 0.0; 0.0; 0.0; 0.0; 0.0; 0.0; 0.0; 0.0; 0.0; 1.6145877716333182E9; 2021-03-01 11:36:11.633
86.0; -187500.015625; -187500.015625; -187500.015625; -26728.662109375; -187500.015625; -187500.015625; -187500.015625; -185708.09375; -0.2460000067949295; 0.9180000424385071; 0.2639999985694885; 192.0; 248.0; 80.0; 28.0; 176.0; 8.0; 64.0; 0.0; 0.0; 0.0; 1.614587771633324E9; 2021-03-01 11:36:11.633
87.0; -39533.10546875; -41188.00390625; -44607.93359375; 187500.0; -65521.4765625; -52257.1484375; -60676.6484375; -166949.84375; -0.2460000067949295; 0.9180000424385071; 0.2639999985694885; 192.0; 0.0; 0.0; 0.0; 0.0; 0.0; 0.0; 0.0; 0.0; 0.0; 1.61458777163333E9; 2021-03-01 11:36:11.633
88.0; -187500.015625; -187500.015625; -187500.015625; -26731.9921875; -187500.015625; -187500.015625; -187500.015625; -185713.15625; -0.2460000067949295; 0.9180000424385071; 0.2639999985694885; 192.0; 0.0; 0.0; 0.0; 0.0; 0.0; 0.0; 0.0; 0.0; 0.0; 1.6145877716333385E9; 2021-03-01 11:36:11.633
89.0; -39697.0546875; -41238.07421875; -44662.76171875; 187500.0; -65532.98828125; -52317.2734375; -60722.37890625; -166885.609375; -0.2460000067949295; 0.9180000424385071; 0.2639999985694885; 192.0; 0.0; 0.0; 0.0; 0.0; 0.0; 0.0; 0.0; 0.0; 0.0; 1.6145877716333444E9; 2021-03-01 11:36:11.633
90.0; -187500.015625; -187500.015625; -187500.015625; -26724.75; -187500.015625; -187500.015625; -187500.015625; -185698.171875; -0.2460000067949295; 0.9180000424385071; 0.2639999985694885; 192.0; 0.0; 0.0; 0.0; 0.0; 0.0; 0.0; 0.0; 0.0; 0.0; 1.6145877716333501E9; 2021-03-01 11:36:11.633
91.0; -39834.5859375; -41214.3359375; -44661.3984375; 187500.0; -65497.046875; -52299.28125; -60720.546875; -166785.171875; -0.2460000067949295; 0.9180000424385071; 0.2639999985694885; 192.0; 0.0; 0.0; 0.0; 0.0; 0.0; 0.0; 0.0; 0.0; 0.0; 1.614587771633356E9; 2021-03-01 11:36:11.633
92.0; -187500.015625; -187500.015625; -187500.015625; -26728.259765625; -187500.015625; -187500.015625; -187500.015625; -185703.78125; -0.2460000067949295; 0.9180000424385071; 0.2639999985694885; 192.0; 0.0; 0.0; 0.0; 0.0; 0.0; 0.0; 0.0; 0.0; 0.0; 1.614587771633362E9; 2021-03-01 11:36:11.633
93.0; -39947.70703125; -41220.4609375; -44662.09375; 187500.0; -65474.828125; -52307.50390625; -60702.46484375; -166758.578125; -0.2460000067949295; 0.9180000424385071; 0.2639999985694885; 192.0; 0.0; 0.0; 0.0; 0.0; 0.0; 0.0; 0.0; 0.0; 0.0; 1.6145877716333675E9; 2021-03-01 11:36:11.633
94.0; -187500.015625; -187500.015625; -187500.015625; -26723.365234375; -187500.015625; -187500.015625; -187500.015625; -185693.28125; -0.2460000067949295; 0.9180000424385071; 0.2639999985694885; 192.0; 0.0; 0.0; 0.0; 0.0; 0.0; 0.0; 0.0; 0.0; 0.0; 1.6145877716333735E9; 2021-03-01 11:36:11.633
95.0; -40102.15625; -41251.37109375; -44699.5078125; 187500.0; -65494.85546875; -52345.48046875; -60716.54296875; -166634.625; -0.2460000067949295; 0.9180000424385071; 0.2639999985694885; 192.0; 0.0; 0.0; 0.0; 0.0; 0.0; 0.0; 0.0; 0.0; 0.0; 1.6145877716333795E9; 2021-03-01 11:36:11.633
96.0; -187500.015625; -187500.015625; -187500.015625; -26730.0703125; -187500.015625; -187500.015625; -187500.015625; -185695.15625; -0.25600001215934753; 0.9160000681877136; 0.25600001215934753; 192.0; 248.0; 0.0; 28.0; 160.0; 8.0; 0.0; 0.0; 0.0; 0.0; 1.6145877716333852E9; 2021-03-01 11:36:11.633
97.0; -40190.58203125; -41184.609375; -44623.578125; 187500.0; -65427.375; -52263.4296875; -60645.0625; -166911.3125; -0.25600001215934753; 0.9160000681877136; 0.25600001215934753; 192.0; 0.0; 0.0; 0.0; 0.0; 0.0; 0.0; 0.0; 0.0; 0.0; 1.6145877716333911E9; 2021-03-01 11:36:11.633
98.0; -187500.015625; -187500.015625; -187500.015625; -26736.41796875; -187500.015625; -187500.015625; -187500.015625; -185700.71875; -0.25600001215934753; 0.9160000681877136; 0.25600001215934753; 192.0; 0.0; 0.0; 0.0; 0.0; 0.0; 0.0; 0.0; 0.0; 0.0; 1.6145877716333969E9; 2021-03-01 11:36:11.633
99.0; -40377.2421875; -41240.10546875; -44674.1171875; 187500.0; -65498.20703125; -52310.72265625; -60697.48046875; -166837.90625; -0.25600001215934753; 0.9160000681877136; 0.25600001215934753; 192.0; 0.0; 0.0; 0.0; 0.0; 0.0; 0.0; 0.0; 0.0; 0.0; 1.6145877716334028E9; 2021-03-01 11:36:11.633
100.0; -187500.015625; -187500.015625; -187500.015625; -26732.796875; -187500.015625; -187500.015625; -187500.015625; -185686.734375; -0.25600001215934753; 0.9160000681877136; 0.25600001215934753; 192.0; 0.0; 0.0; 0.0; 0.0; 0.0; 0.0; 0.0; 0.0; 0.0; 1.6145877716334085E9; 2021-03-01 11:36:11.633
101.0; -40471.98828125; -41213.93359375; -44641.640625; 187500.0; -65483.09765625; -52273.30859375; -60656.28515625; -166768.6875; -0.25600001215934753; 0.9160000681877136; 0.25600001215934753; 192.0; 0.0; 0.0; 0.0; 0.0; 0.0; 0.0; 0.0; 0.0; 0.0; 1.6145877716334145E9; 2021-03-01 11:36:11.633
102.0; -187500.015625; -187500.015625; -187500.015625; -26743.2578125; -187500.015625; -187500.015625; -187500.015625; -185696.4375; -0.25600001215934753; 0.9160000681877136; 0.25600001215934753; 192.0; 0.0; 0.0; 0.0; 0.0; 0.0; 0.0; 0.0; 0.0; 0.0; 1.6145877716334205E9; 2021-03-01 11:36:11.633
103.0; -40581.40234375; -41196.2734375; -44629.34765625; 187500.0; -65481.17578125; -52249.4375; -60623.25; -166788.515625; -0.25600001215934753; 0.9160000681877136; 0.25600001215934753; 192.0; 0.0; 0.0; 0.0; 0.0; 0.0; 0.0; 0.0; 0.0; 0.0; 1.614587771633426E9; 2021-03-01 11:36:11.633
104.0; -187500.015625; -187500.015625; -187500.015625; -26742.69921875; -187500.015625; -187500.015625; -187500.015625; -185687.984375; -0.25600001215934753; 0.9160000681877136; 0.25600001215934753; 192.0; 0.0; 0.0; 0.0; 0.0; 0.0; 0.0; 0.0; 0.0; 0.0; 1.614587771633432E9; 2021-03-01 11:36:11.633
105.0; -40831.09375; -41251.4375; -44697.1171875; 187500.0; -65584.9140625; -52295.234375; -60677.875; -166654.203125; -0.23800000548362732; 0.9240000247955322; 0.25200000405311584; 192.0; 248.0; 144.0; 28.0; 224.0; 7.0; 224.0; 0.0; 0.0; 0.0; 1.614587771633438E9; 2021-03-01 11:36:11.633
106.0; -187500.015625; -187500.015625; -187500.015625; -26749.583984375; -187500.015625; -187500.015625; -187500.015625; -185688.71875; -0.23800000548362732; 0.9240000247955322; 0.25200000405311584; 192.0; 0.0; 0.0; 0.0; 0.0; 0.0; 0.0; 0.0; 0.0; 0.0; 1.6145877716334436E9; 2021-03-01 11:36:11.633
107.0; -40845.8203125; -41168.89453125; -44629.0546875; 187500.0; -65528.31640625; -52204.15234375; -60580.3125; -166955.953125; -0.23800000548362732; 0.9240000247955322; 0.25200000405311584; 192.0; 0.0; 0.0; 0.0; 0.0; 0.0; 0.0; 0.0; 0.0; 0.0; 1.6145877716334496E9; 2021-03-01 11:36:11.633
108.0; -187500.015625; -187500.015625; -187500.015625; -26757.115234375; -187500.015625; -187500.015625; -187500.015625; -185695.734375; -0.23800000548362732; 0.9240000247955322; 0.25200000405311584; 192.0; 0.0; 0.0; 0.0; 0.0; 0.0; 0.0; 0.0; 0.0; 0.0; 1.6145877716334555E9; 2021-03-01 11:36:11.633
109.0; -41011.47265625; -41246.03125; -44705.87890625; 187500.0; -65586.453125; -52283.34375; -60632.43359375; -166906.8125; -0.23800000548362732; 0.9240000247955322; 0.25200000405311584; 192.0; 0.0; 0.0; 0.0; 0.0; 0.0; 0.0; 0.0; 0.0; 0.0; 1.6145877716334612E9; 2021-03-01 11:36:11.633
110.0; -187500.015625; -187500.015625; -187500.015625; -26753.427734375; -187500.015625; -187500.015625; -187500.015625; -185682.109375; -0.23800000548362732; 0.9240000247955322; 0.25200000405311584; 192.0; 0.0; 0.0; 0.0; 0.0; 0.0; 0.0; 0.0; 0.0; 0.0; 1.614587771633467E9; 2021-03-01 11:36:11.633
111.0; -41191.60546875; -41228.70703125; -44717.27734375; 187500.0; -65553.125; -52251.53515625; -60625.08203125; -166839.265625; -0.23800000548362732; 0.9240000247955322; 0.25200000405311584; 192.0; 0.0; 0.0; 0.0; 0.0; 0.0; 0.0; 0.0; 0.0; 0.0; 1.6145877716334755E9; 2021-03-01 11:36:11.633
112.0; -187500.015625; -187500.015625; -187500.015625; -26763.017578125; -187500.015625; -187500.015625; -187500.015625; -185691.25; -0.23800000548362732; 0.9240000247955322; 0.25200000405311584; 192.0; 0.0; 0.0; 0.0; 0.0; 0.0; 0.0; 0.0; 0.0; 0.0; 1.6145877716334813E9; 2021-03-01 11:36:11.633
113.0; -41476.07421875; -41224.99609375; -44740.32421875; 187500.0; -65520.15625; -52232.89453125; -60612.609375; -166818.8125; -0.23800000548362732; 0.9240000247955322; 0.25200000405311584; 192.0; 0.0; 0.0; 0.0; 0.0; 0.0; 0.0; 0.0; 0.0; 0.0; 1.6145877716334872E9; 2021-03-01 11:36:11.633
114.0; -187500.015625; -187500.015625; -187500.015625; -26757.65234375; -187500.015625; -187500.015625; -187500.015625; -185678.375; -0.23800000548362732; 0.9240000247955322; 0.25200000405311584; 192.0; 0.0; 0.0; 0.0; 0.0; 0.0; 0.0; 0.0; 0.0; 0.0; 1.614587771633493E9; 2021-03-01 11:36:11.633
115.0; -41759.42578125; -41279.89453125; -44818.33203125; 187500.0; -65549.640625; -52275.05078125; -60649.2421875; -166650.484375; -0.23400001227855682; 0.9300000667572021; 0.2460000067949295; 192.0; 248.0; 176.0; 29.0; 16.0; 7.0; 176.0; 0.0; 0.0; 0.0; 1.614587771633499E9; 2021-03-01 11:36:11.633
116.0; -187500.015625; -187500.015625; -187500.015625; -26762.681640625; -187500.015625; -187500.015625; -187500.015625; -185676.21875; -0.23400001227855682; 0.9300000667572021; 0.2460000067949295; 192.0; 0.0; 0.0; 0.0; 0.0; 0.0; 0.0; 0.0; 0.0; 0.0; 1.6145877716335049E9; 2021-03-01 11:36:11.633
117.0; -41774.73828125; -41210.15625; -44776.7578125; 187500.0; -65449.75; -52213.046875; -60593.765625; -166895.0625; -0.23400001227855682; 0.9300000667572021; 0.2460000067949295; 192.0; 0.0; 0.0; 0.0; 0.0; 0.0; 0.0; 0.0; 0.0; 0.0; 1.614587771633511E9; 2021-03-01 11:36:11.633
118.0; -187500.015625; -187500.015625; -187500.015625; -26768.560546875; -187500.015625; -187500.015625; -187500.015625; -185680.65625; -0.23400001227855682; 0.9300000667572021; 0.2460000067949295; 192.0; 0.0; 0.0; 0.0; 0.0; 0.0; 0.0; 0.0; 0.0; 0.0; 1.6145877716335168E9; 2021-03-01 11:36:11.633
119.0; -41852.43359375; -41245.359375; -44837.46484375; 187500.0; -65453.81640625; -52252.453125; -60615.06640625; -166859.828125; -0.23400001227855682; 0.9300000667572021; 0.2460000067949295; 192.0; 0.0; 0.0; 0.0; 0.0; 0.0; 0.0; 0.0; 0.0; 0.0; 1.6145877716335227E9; 2021-03-01 11:36:11.633
120.0; -187500.015625; -187500.015625; -187500.015625; -26766.794921875; -187500.015625; -187500.015625; -187500.015625; -185668.109375; -0.23400001227855682; 0.9300000667572021; 0.2460000067949295; 192.0; 0.0; 0.0; 0.0; 0.0; 0.0; 0.0; 0.0; 0.0; 0.0; 1.6145877716335287E9; 2021-03-01 11:36:11.633
121.0; -41868.16796875; -41230.13671875; -44857.3125; 187500.0; -65433.1640625; -52245.859375; -60605.58984375; -166790.828125; -0.23400001227855682; 0.9300000667572021; 0.2460000067949295; 192.0; 0.0; 0.0; 0.0; 0.0; 0.0; 0.0; 0.0; 0.0; 0.0; 1.6145877717033708E9; 2021-03-01 11:36:11.703
122.0; -187500.015625; -187500.015625; -187500.015625; -26779.265625; -187500.015625; -187500.015625; -187500.015625; -185680.859375; -0.23400001227855682; 0.9300000667572021; 0.2460000067949295; 192.0; 0.0; 0.0; 0.0; 0.0; 0.0; 0.0; 0.0; 0.0; 0.0; 1.614587771703401E9; 2021-03-01 11:36:11.703
123.0; -41866.06640625; -41217.82421875; -44881.00390625; 187500.0; -65405.4921875; -52232.2265625; -60590.48046875; -166770.359375; -0.23400001227855682; 0.9300000667572021; 0.2460000067949295; 192.0; 0.0; 0.0; 0.0; 0.0; 0.0; 0.0; 0.0; 0.0; 0.0; 1.6145877717034075E9; 2021-03-01 11:36:11.703
124.0; -187500.015625; -187500.015625; -187500.015625; -26773.58984375; -187500.015625; -187500.015625; -187500.015625; -185669.984375; -0.23400001227855682; 0.9300000667572021; 0.2460000067949295; 192.0; 0.0; 0.0; 0.0; 0.0; 0.0; 0.0; 0.0; 0.0; 0.0; 1.6145877717034137E9; 2021-03-01 11:36:11.703
125.0; -41932.23046875; -41250.92578125; -44948.91015625; 187500.0; -65449.21484375; -52278.47265625; -60633.77734375; -166712.421875; -0.2200000137090683; 0.9380000233650208; 0.242000013589859; 192.0; 249.0; 32.0; 29.0; 80.0; 7.0; 144.0; 0.0; 0.0; 0.0; 1.61458777170342E9; 2021-03-01 11:36:11.703
126.0; -187500.015625; -187500.015625; -187500.015625; -26777.544921875; -187500.015625; -187500.015625; -187500.015625; -185669.515625; -0.2200000137090683; 0.9380000233650208; 0.242000013589859; 192.0; 0.0; 0.0; 0.0; 0.0; 0.0; 0.0; 0.0; 0.0; 0.0; 1.6145877717034261E9; 2021-03-01 11:36:11.703
127.0; -41897.65234375; -41185.92578125; -44918.01953125; 187500.0; -65390.51953125; -52220.9140625; -60567.68359375; -166924.765625; -0.2200000137090683; 0.9380000233650208; 0.242000013589859; 192.0; 0.0; 0.0; 0.0; 0.0; 0.0; 0.0; 0.0; 0.0; 0.0; 1.6145877717034323E9; 2021-03-01 11:36:11.703
128.0; -187500.015625; -187500.015625; -187500.015625; -26782.75390625; -187500.015625; -187500.015625; -187500.015625; -185676.25; -0.2200000137090683; 0.9380000233650208; 0.242000013589859; 192.0; 0.0; 0.0; 0.0; 0.0; 0.0; 0.0; 0.0; 0.0; 0.0; 1.6145877717034383E9; 2021-03-01 11:36:11.703
129.0; -41965.80078125; -41226.71875; -44992.44921875; 187500.0; -65443.8046875; -52270.19921875; -60625.34765625; -166822.734375; -0.2200000137090683; 0.9380000233650208; 0.242000013589859; 192.0; 0.0; 0.0; 0.0; 0.0; 0.0; 0.0; 0.0; 0.0; 0.0; 1.6145877717034447E9; 2021-03-01 11:36:11.703
130.0; -187500.015625; -187500.015625; -187500.015625; -26775.890625; -187500.015625; -187500.015625; -187500.015625; -185660.53125; -0.2200000137090683; 0.9380000233650208; 0.242000013589859; 192.0; 0.0; 0.0; 0.0; 0.0; 0.0; 0.0; 0.0; 0.0; 0.0; 1.614587771703451E9; 2021-03-01 11:36:11.703
131.0; -41975.01171875; -41231.3671875; -45007.76171875; 187500.0; -65437.34375; -52262.2890625; -60617.21484375; -166744.203125; -0.2200000137090683; 0.9380000233650208; 0.242000013589859; 192.0; 0.0; 0.0; 0.0; 0.0; 0.0; 0.0; 0.0; 0.0; 0.0; 1.614587771703458E9; 2021-03-01 11:36:11.703
132.0; -187500.015625; -187500.015625; -187500.015625; -26784.67578125; -187500.015625; -187500.015625; -187500.015625; -185669.046875; -0.2200000137090683; 0.9380000233650208; 0.242000013589859; 192.0; 0.0; 0.0; 0.0; 0.0; 0.0; 0.0; 0.0; 0.0; 0.0; 1.6145877717034645E9; 2021-03-01 11:36:11.703
133.0; -41948.14453125; -41213.015625; -45005.59375; 187500.0; -65417.453125; -52242.6875; -60597.03125; -166842.59375; -0.2200000137090683; 0.9380000233650208; 0.242000013589859; 192.0; 0.0; 0.0; 0.0; 0.0; 0.0; 0.0; 0.0; 0.0; 0.0; 1.6145877717034707E9; 2021-03-01 11:36:11.703
134.0; -187500.015625; -187500.015625; -187500.015625; -26776.80859375; -187500.015625; -187500.015625; -187500.015625; -185654.875; -0.2200000137090683; 0.9380000233650208; 0.242000013589859; 192.0; 0.0; 0.0; 0.0; 0.0; 0.0; 0.0; 0.0; 0.0; 0.0; 1.614587771703484E9; 2021-03-01 11:36:11.703
135.0; -42011.890625; -41268.0703125; -45086.26171875; 187500.0; -65465.6875; -52282.09375; -60668.3984375; -166634.34375; -0.23600001633167267; 0.9420000314712524; 0.23200000822544098; 192.0; 248.0; 160.0; 29.0; 112.0; 7.0; 64.0; 0.0; 0.0; 0.0; 1.614587772102192E9; 2021-03-01 11:36:12.102
136.0; -187500.015625; -187500.015625; -187500.015625; -26775.712890625; -187500.015625; -187500.015625; -187500.015625; -185647.21875; -0.23600001633167267; 0.9420000314712524; 0.23200000822544098; 192.0; 0.0; 0.0; 0.0; 0.0; 0.0; 0.0; 0.0; 0.0; 0.0; 1.614587772102375E9; 2021-03-01 11:36:12.102
137.0; -41946.265625; -41205.125; -45041.06640625; 187500.0; -65367.2734375; -52236.09375; -60601.09765625; -166823.5625; -0.23600001633167267; 0.9420000314712524; 0.23200000822544098; 192.0; 0.0; 0.0; 0.0; 0.0; 0.0; 0.0; 0.0; 0.0; 0.0; 1.6145877721023812E9; 2021-03-01 11:36:12.102
138.0; -187500.015625; -187500.015625; -187500.015625; -26777.27734375; -187500.015625; -187500.015625; -187500.015625; -185647.703125; -0.23600001633167267; 0.9420000314712524; 0.23200000822544098; 192.0; 0.0; 0.0; 0.0; 0.0; 0.0; 0.0; 0.0; 0.0; 0.0; 1.614587772102387E9; 2021-03-01 11:36:12.102
139.0; -41976.62109375; -41247.99609375; -45111.67578125; 187500.0; -65394.67578125; -52292.26171875; -60662.609375; -166755.140625; -0.23600001633167267; 0.9420000314712524; 0.23200000822544098; 192.0; 0.0; 0.0; 0.0; 0.0; 0.0; 0.0; 0.0; 0.0; 0.0; 1.614587772102393E9; 2021-03-01 11:36:12.102
140.0; -187500.015625; -187500.015625; -187500.015625; -26768.939453125; -187500.015625; -187500.015625; -187500.015625; -185628.796875; -0.23600001633167267; 0.9420000314712524; 0.23200000822544098; 192.0; 0.0; 0.0; 0.0; 0.0; 0.0; 0.0; 0.0; 0.0; 0.0; 1.6145877721023989E9; 2021-03-01 11:36:12.102
141.0; -41944.12109375; -41238.07421875; -45120.078125; 187500.0; -65364.96875; -52264.1875; -60653.17578125; -166786.546875; -0.23600001633167267; 0.9420000314712524; 0.23200000822544098; 192.0; 0.0; 0.0; 0.0; 0.0; 0.0; 0.0; 0.0; 0.0; 0.0; 1.6145877721024048E9; 2021-03-01 11:36:12.102
142.0; -187500.015625; -187500.015625; -187500.015625; -26774.05859375; -187500.015625; -187500.015625; -187500.015625; -185633.90625; -0.23600001633167267; 0.9420000314712524; 0.23200000822544098; 192.0; 0.0; 0.0; 0.0; 0.0; 0.0; 0.0; 0.0; 0.0; 0.0; 1.6145877721024103E9; 2021-03-01 11:36:12.102
143.0; -41937.4140625; -41220.37109375; -45138.1171875; 187500.0; -65334.1015625; -52237.23046875; -60600.046875; -166905.4375; -0.23600001633167267; 0.9420000314712524; 0.23200000822544098; 192.0; 0.0; 0.0; 0.0; 0.0; 0.0; 0.0; 0.0; 0.0; 0.0; 1.6145877721024175E9; 2021-03-01 11:36:12.102
144.0; -187500.015625; -187500.015625; -187500.015625; -26766.615234375; -187500.015625; -187500.015625; -187500.015625; -185621.1875; -0.242000013589859; 0.9360000491142273; 0.22200001776218414; 192.0; 248.0; 112.0; 29.0; 64.0; 6.0; 240.0; 0.0; 0.0; 0.0; 1.6145877721024234E9; 2021-03-01 11:36:12.102
145.0; -41996.8046875; -41256.01953125; -45209.1953125; 187500.0; -65351.984375; -52284.10546875; -60651.94921875; -166785.9375; -0.242000013589859; 0.9360000491142273; 0.22200001776218414; 192.0; 0.0; 0.0; 0.0; 0.0; 0.0; 0.0; 0.0; 0.0; 0.0; 1.6145877721024294E9; 2021-03-01 11:36:12.102
146.0; -187500.015625; -187500.015625; -187500.015625; -26767.978515625; -187500.015625; -187500.015625; -187500.015625; -185617.640625; -0.242000013589859; 0.9360000491142273; 0.22200001776218414; 192.0; 0.0; 0.0; 0.0; 0.0; 0.0; 0.0; 0.0; 0.0; 0.0; 1.614587772102436E9; 2021-03-01 11:36:12.102
147.0; -41966.13671875; -41205.21484375; -45195.2265625; 187500.0; -65289.80078125; -52254.421875; -60618.578125; -166833.890625; -0.242000013589859; 0.9360000491142273; 0.22200001776218414; 192.0; 0.0; 0.0; 0.0; 0.0; 0.0; 0.0; 0.0; 0.0; 0.0; 1.614587772102442E9; 2021-03-01 11:36:12.102
148.0; -187500.015625; -187500.015625; -187500.015625; -26769.453125; -187500.015625; -187500.015625; -187500.015625; -185620.796875; -0.242000013589859; 0.9360000491142273; 0.22200001776218414; 192.0; 0.0; 0.0; 0.0; 0.0; 0.0; 0.0; 0.0; 0.0; 0.0; 1.6145877721024477E9; 2021-03-01 11:36:12.102
149.0; -42031.60546875; -41259.28515625; -45275.82421875; 187500.0; -65324.9140625; -52299.9296875; -60667.4609375; -166757.546875; -0.242000013589859; 0.9360000491142273; 0.22200001776218414; 192.0; 0.0; 0.0; 0.0; 0.0; 0.0; 0.0; 0.0; 0.0; 0.0; 1.6145877721024542E9; 2021-03-01 11:36:12.102
150.0; -187500.015625; -187500.015625; -187500.015625; -26756.9375; -187500.015625; -187500.015625; -187500.015625; -185600.9375; -0.242000013589859; 0.9360000491142273; 0.22200001776218414; 192.0; 0.0; 0.0; 0.0; 0.0; 0.0; 0.0; 0.0; 0.0; 0.0; 1.6145877721024601E9; 2021-03-01 11:36:12.102
151.0; -42045.21484375; -41273.43359375; -45281.9296875; 187500.0; -65311.99609375; -52291.34375; -60669.80859375; -166702.875; -0.242000013589859; 0.9360000491142273; 0.22200001776218414; 192.0; 0.0; 0.0; 0.0; 0.0; 0.0; 0.0; 0.0; 0.0; 0.0; 1.614587772102466E9; 2021-03-01 11:36:12.102
152.0; -187500.015625; -187500.015625; -187500.015625; -26759.060546875; -187500.015625; -187500.015625; -187500.015625; -185605.21875; -0.242000013589859; 0.9360000491142273; 0.22200001776218414; 192.0; 0.0; 0.0; 0.0; 0.0; 0.0; 0.0; 0.0; 0.0; 0.0; 1.614587772102472E9; 2021-03-01 11:36:12.102
153.0; -42021.27734375; -41232.21875; -45244.51171875; 187500.0; -65269.4609375; -52252.4296875; -60643.12109375; -166882.296875; -0.242000013589859; 0.9360000491142273; 0.22200001776218414; 192.0; 0.0; 0.0; 0.0; 0.0; 0.0; 0.0; 0.0; 0.0; 0.0; 1.6145877721024778E9; 2021-03-01 11:36:12.102
154.0; -187500.015625; -187500.015625; -187500.015625; -26750.8359375; -187500.015625; -187500.015625; -187500.015625; -185593.5; -0.24000000953674316; 0.9300000667572021; 0.2240000069141388; 192.0; 248.0; 128.0; 29.0; 16.0; 7.0; 0.0; 0.0; 0.0; 0.0; 1.6145877721024835E9; 2021-03-01 11:36:12.102
155.0; -42059.20703125; -41275.265625; -45300.5703125; 187500.0; -65317.76171875; -52314.61328125; -60704.09375; -166720.671875; -0.24000000953674316; 0.9300000667572021; 0.2240000069141388; 192.0; 0.0; 0.0; 0.0; 0.0; 0.0; 0.0; 0.0; 0.0; 0.0; 1.6145877721024897E9; 2021-03-01 11:36:12.102
156.0; -187500.015625; -187500.015625; -187500.015625; -26746.208984375; -187500.015625; -187500.015625; -187500.015625; -185585.359375; -0.24000000953674316; 0.9300000667572021; 0.2240000069141388; 192.0; 0.0; 0.0; 0.0; 0.0; 0.0; 0.0; 0.0; 0.0; 0.0; 1.6145877721024957E9; 2021-03-01 11:36:12.102
157.0; -41981.6484375; -41211.5625; -45239.4140625; 187500.0; -65249.07421875; -52251.53515625; -60626.80078125; -166712.484375; -0.24000000953674316; 0.9300000667572021; 0.2240000069141388; 192.0; 0.0; 0.0; 0.0; 0.0; 0.0; 0.0; 0.0; 0.0; 0.0; 1.6145877721025105E9; 2021-03-01 11:36:12.102
158.0; -187500.015625; -187500.015625; -187500.015625; -26744.912109375; -187500.015625; -187500.015625; -187500.015625; -185587.3125; -0.24000000953674316; 0.9300000667572021; 0.2240000069141388; 192.0; 0.0; 0.0; 0.0; 0.0; 0.0; 0.0; 0.0; 0.0; 0.0; 1.614587772102516E9; 2021-03-01 11:36:12.102
159.0; -42016.96484375; -41254.6796875; -45308.79296875; 187500.0; -65313.60546875; -52308.2890625; -60694.34765625; -166607.4375; -0.24000000953674316; 0.9300000667572021; 0.2240000069141388; 192.0; 0.0; 0.0; 0.0; 0.0; 0.0; 0.0; 0.0; 0.0; 0.0; 1.614587772102522E9; 2021-03-01 11:36:12.102
160.0; -187500.015625; -187500.015625; -187500.015625; -26736.6640625; -187500.015625; -187500.015625; -187500.015625; -185573.5; -0.24000000953674316; 0.9300000667572021; 0.2240000069141388; 192.0; 0.0; 0.0; 0.0; 0.0; 0.0; 0.0; 0.0; 0.0; 0.0; 1.6145877721025279E9; 2021-03-01 11:36:12.102
161.0; -41975.2109375; -41224.21484375; -45274.41796875; 187500.0; -65277.1484375; -52282.26953125; -60660.5546875; -166811.640625; -0.24000000953674316; 0.9300000667572021; 0.2240000069141388; 192.0; 0.0; 0.0; 0.0; 0.0; 0.0; 0.0; 0.0; 0.0; 0.0; 1.6145877721025336E9; 2021-03-01 11:36:12.102
162.0; -187500.015625; -187500.015625; -187500.015625; -26741.916015625; -187500.015625; -187500.015625; -187500.015625; -185583.671875; -0.24000000953674316; 0.9300000667572021; 0.2240000069141388; 192.0; 0.0; 0.0; 0.0; 0.0; 0.0; 0.0; 0.0; 0.0; 0.0; 1.6145877721025393E9; 2021-03-01 11:36:12.102
163.0; -41935.40234375; -41203.875; -45247.83984375; 187500.0; -65248.02734375; -52246.953125; -60634.35546875; -166969.21875; -0.24000000953674316; 0.9300000667572021; 0.2240000069141388; 192.0; 0.0; 0.0; 0.0; 0.0; 0.0; 0.0; 0.0; 0.0; 0.0; 1.6145877721025453E9; 2021-03-01 11:36:12.102
164.0; -187500.015625; -187500.015625; -187500.015625; -26737.580078125; -187500.015625; -187500.015625; -187500.015625; -185579.53125; -0.23600001633167267; 0.9260000586509705; 0.22800001502037048; 192.0; 248.0; 160.0; 28.0; 240.0; 7.0; 32.0; 0.0; 0.0; 0.0; 1.614587772102551E9; 2021-03-01 11:36:12.102
165.0; -41964.01171875; -41248.30859375; -45276.85546875; 187500.0; -65296.39453125; -52284.8203125; -60666.7890625; -166858.046875; -0.23600001633167267; 0.9260000586509705; 0.22800001502037048; 192.0; 0.0; 0.0; 0.0; 0.0; 0.0; 0.0; 0.0; 0.0; 0.0; 1.6145877721025567E9; 2021-03-01 11:36:12.102
166.0; -187500.015625; -187500.015625; -187500.015625; -26736.10546875; -187500.015625; -187500.015625; -187500.015625; -185578.171875; -0.23600001633167267; 0.9260000586509705; 0.22800001502037048; 192.0; 0.0; 0.0; 0.0; 0.0; 0.0; 0.0; 0.0; 0.0; 0.0; 1.614587772102563E9; 2021-03-01 11:36:12.102
167.0; -41914.05859375; -41206.109375; -45223.1640625; 187500.0; -65246.50390625; -52255.875; -60634.69140625; -166912.0; -0.23600001633167267; 0.9260000586509705; 0.22800001502037048; 192.0; 0.0; 0.0; 0.0; 0.0; 0.0; 0.0; 0.0; 0.0; 0.0; 1.6145877721025686E9; 2021-03-01 11:36:12.102
168.0; -187500.015625; -187500.015625; -187500.015625; -26738.8984375; -187500.015625; -187500.015625; -187500.015625; -185588.25; -0.23600001633167267; 0.9260000586509705; 0.22800001502037048; 192.0; 0.0; 0.0; 0.0; 0.0; 0.0; 0.0; 0.0; 0.0; 0.0; 1.6145877721025743E9; 2021-03-01 11:36:12.102
169.0; -41941.1484375; -41242.09765625; -45259.64453125; 187500.0; -65272.6328125; -52284.90625; -60674.6796875; -166877.5625; -0.23600001633167267; 0.9260000586509705; 0.22800001502037048; 192.0; 0.0; 0.0; 0.0; 0.0; 0.0; 0.0; 0.0; 0.0; 0.0; 1.6145877721025803E9; 2021-03-01 11:36:12.102
170.0; -187500.015625; -187500.015625; -187500.015625; -26733.958984375; -187500.015625; -187500.015625; -187500.015625; -185581.765625; -0.23600001633167267; 0.9260000586509705; 0.22800001502037048; 192.0; 0.0; 0.0; 0.0; 0.0; 0.0; 0.0; 0.0; 0.0; 0.0; 1.614587772102586E9; 2021-03-01 11:36:12.102
171.0; -41904.3125; -41205.28125; -45230.140625; 187500.0; -65244.24609375; -52258.01953125; -60645.7109375; -166879.375; -0.23600001633167267; 0.9260000586509705; 0.22800001502037048; 192.0; 0.0; 0.0; 0.0; 0.0; 0.0; 0.0; 0.0; 0.0; 0.0; 1.6145877721025918E9; 2021-03-01 11:36:12.102
172.0; -187500.015625; -187500.015625; -187500.015625; -26739.212890625; -187500.015625; -187500.015625; -187500.015625; -185595.265625; -0.23600001633167267; 0.9260000586509705; 0.22800001502037048; 192.0; 0.0; 0.0; 0.0; 0.0; 0.0; 0.0; 0.0; 0.0; 0.0; 1.6145877721025977E9; 2021-03-01 11:36:12.102
173.0; -41874.203125; -41213.1953125; -45221.578125; 187500.0; -65230.5234375; -52252.1171875; -60637.734375; -166961.328125; -0.23600001633167267; 0.9260000586509705; 0.22800001502037048; 192.0; 0.0; 0.0; 0.0; 0.0; 0.0; 0.0; 0.0; 0.0; 0.0; 1.6145877721026037E9; 2021-03-01 11:36:12.102
174.0; -187500.015625; -187500.015625; -187500.015625; -26735.814453125; -187500.015625; -187500.015625; -187500.015625; -185594.8125; -0.23800000548362732; 0.9220000505447388; 0.23200000822544098; 192.0; 248.0; 144.0; 28.0; 208.0; 7.0; 64.0; 0.0; 0.0; 0.0; 1.6145877721026094E9; 2021-03-01 11:36:12.102
175.0; -41917.23046875; -41266.19140625; -45284.609375; 187500.0; -65281.15234375; -52311.640625; -60705.97265625; -166841.171875; -0.23800000548362732; 0.9220000505447388; 0.23200000822544098; 192.0; 0.0; 0.0; 0.0; 0.0; 0.0; 0.0; 0.0; 0.0; 0.0; 1.614587772102615E9; 2021-03-01 11:36:12.102
176.0; -187500.015625; -187500.015625; -187500.015625; -26731.322265625; -187500.015625; -187500.015625; -187500.015625; -185592.296875; -0.23800000548362732; 0.9220000505447388; 0.23200000822544098; 192.0; 0.0; 0.0; 0.0; 0.0; 0.0; 0.0; 0.0; 0.0; 0.0; 1.614587772102621E9; 2021-03-01 11:36:12.102
177.0; -41852.140625; -41211.25; -45242.9453125; 187500.0; -65221.16015625; -52250.15234375; -60648.5078125; -166876.546875; -0.23800000548362732; 0.9220000505447388; 0.23200000822544098; 192.0; 0.0; 0.0; 0.0; 0.0; 0.0; 0.0; 0.0; 0.0; 0.0; 1.6145877721026268E9; 2021-03-01 11:36:12.102
178.0; -187500.015625; -187500.015625; -187500.015625; -26734.00390625; -187500.015625; -187500.015625; -187500.015625; -185603.375; -0.23800000548362732; 0.9220000505447388; 0.23200000822544098; 192.0; 0.0; 0.0; 0.0; 0.0; 0.0; 0.0; 0.0; 0.0; 0.0; 1.6145877721026325E9; 2021-03-01 11:36:12.102
179.0; -41864.03515625; -41228.52734375; -45282.2421875; 187500.0; -65232.3125; -52280.05859375; -60671.41796875; -166828.609375; -0.23800000548362732; 0.9220000505447388; 0.23200000822544098; 192.0; 0.0; 0.0; 0.0; 0.0; 0.0; 0.0; 0.0; 0.0; 0.0; 1.6145877721026385E9; 2021-03-01 11:36:12.102
180.0; -187500.015625; -187500.015625; -187500.015625; -26722.44921875; -187500.015625; -187500.015625; -187500.015625; -185589.8125; -0.23800000548362732; 0.9220000505447388; 0.23200000822544098; 192.0; 0.0; 0.0; 0.0; 0.0; 0.0; 0.0; 0.0; 0.0; 0.0; 1.6145877721026444E9; 2021-03-01 11:36:12.102
181.0; -41855.4296875; -41226.76171875; -45295.60546875; 187500.0; -65232.15625; -52294.18359375; -60687.48828125; -166713.203125; -0.23800000548362732; 0.9220000505447388; 0.23200000822544098; 192.0; 0.0; 0.0; 0.0; 0.0; 0.0; 0.0; 0.0; 0.0; 0.0; 1.6145877721026533E9; 2021-03-01 11:36:12.102
182.0; -187500.015625; -187500.015625; -187500.015625; -26726.13671875; -187500.015625; -187500.015625; -187500.015625; -185600.9375; -0.23800000548362732; 0.9220000505447388; 0.23200000822544098; 192.0; 0.0; 0.0; 0.0; 0.0; 0.0; 0.0; 0.0; 0.0; 0.0; 1.6145877721026587E9; 2021-03-01 11:36:12.102
183.0; -41804.8671875; -41187.6484375; -45272.13671875; 187500.0; -65162.70703125; -52252.65625; -60637.59765625; -166754.609375; -0.23800000548362732; 0.9220000505447388; 0.23200000822544098; 192.0; 0.0; 0.0; 0.0; 0.0; 0.0; 0.0; 0.0; 0.0; 0.0; 1.6145877721026647E9; 2021-03-01 11:36:12.102
184.0; -187500.015625; -187500.015625; -187500.015625; -26721.419921875; -187500.015625; -187500.015625; -187500.015625; -185597.6875; -0.23200000822544098; 0.9160000681877136; 0.24400001764297485; 192.0; 248.0; 192.0; 28.0; 160.0; 7.0; 160.0; 0.0; 0.0; 0.0; 1.6145877721026707E9; 2021-03-01 11:36:12.102
185.0; -41879.8125; -41283.3125; -45375.203125; 187500.0; -65214.83203125; -52345.52734375; -60732.97265625; -166683.390625; -0.23200000822544098; 0.9160000681877136; 0.24400001764297485; 192.0; 0.0; 0.0; 0.0; 0.0; 0.0; 0.0; 0.0; 0.0; 0.0; 1.6145877721026764E9; 2021-03-01 11:36:12.102
186.0; -187500.015625; -187500.015625; -187500.015625; -26720.19140625; -187500.015625; -187500.015625; -187500.015625; -185595.84375; -0.23200000822544098; 0.9160000681877136; 0.24400001764297485; 192.0; 0.0; 0.0; 0.0; 0.0; 0.0; 0.0; 0.0; 0.0; 0.0; 1.614587772102682E9; 2021-03-01 11:36:12.102
187.0; -41871.38671875; -41296.61328125; -45405.62109375; 187500.0; -65195.6328125; -52347.60546875; -60745.2890625; -166983.578125; -0.23200000822544098; 0.9160000681877136; 0.24400001764297485; 192.0; 0.0; 0.0; 0.0; 0.0; 0.0; 0.0; 0.0; 0.0; 0.0; 1.614587772102688E9; 2021-03-01 11:36:12.102
188.0; -187500.015625; -187500.015625; -187500.015625; -26721.30859375; -187500.015625; -187500.015625; -187500.015625; -185602.3125; -0.23200000822544098; 0.9160000681877136; 0.24400001764297485; 192.0; 0.0; 0.0; 0.0; 0.0; 0.0; 0.0; 0.0; 0.0; 0.0; 1.614587772102694E9; 2021-03-01 11:36:12.102
189.0; -41877.109375; -41309.0390625; -45459.33203125; 187500.0; -65190.58203125; -52365.12890625; -60767.52734375; -166879.234375; -0.23200000822544098; 0.9160000681877136; 0.24400001764297485; 192.0; 0.0; 0.0; 0.0; 0.0; 0.0; 0.0; 0.0; 0.0; 0.0; 1.6145877721026995E9; 2021-03-01 11:36:12.102
190.0; -187500.015625; -187500.015625; -187500.015625; -26714.15625; -187500.015625; -187500.015625; -187500.015625; -185590.53125; -0.23200000822544098; 0.9160000681877136; 0.24400001764297485; 192.0; 0.0; 0.0; 0.0; 0.0; 0.0; 0.0; 0.0; 0.0; 0.0; 1.6145877721027057E9; 2021-03-01 11:36:12.102
191.0; -41808.3125; -41250.0078125; -45427.34765625; 187500.0; -65127.70703125; -52301.78515625; -60715.44921875; -166777.453125; -0.23200000822544098; 0.9160000681877136; 0.24400001764297485; 192.0; 0.0; 0.0; 0.0; 0.0; 0.0; 0.0; 0.0; 0.0; 0.0; 1.6145877721027114E9; 2021-03-01 11:36:12.102
192.0; -187500.015625; -187500.015625; -187500.015625; -26722.806640625; -187500.015625; -187500.015625; -187500.015625; -185603.671875; -0.23200000822544098; 0.9160000681877136; 0.24400001764297485; 192.0; 0.0; 0.0; 0.0; 0.0; 0.0; 0.0; 0.0; 0.0; 0.0; 1.6145877721027172E9; 2021-03-01 11:36:12.102
193.0; -41750.91015625; -41196.2734375; -45407.76953125; 187500.0; -65059.62109375; -52254.98046875; -60649.6015625; -166797.5625; -0.23000000417232513; 0.9220000505447388; 0.24800001084804535; 192.0; 248.0; 208.0; 28.0; 208.0; 7.0; 192.0; 0.0; 0.0; 0.0; 1.6145877721027231E9; 2021-03-01 11:36:12.102
194.0; -187500.015625; -187500.015625; -187500.015625; -26717.91015625; -187500.015625; -187500.015625; -187500.015625; -185598.0; -0.23000000417232513; 0.9220000505447388; 0.24800001084804535; 192.0; 0.0; 0.0; 0.0; 0.0; 0.0; 0.0; 0.0; 0.0; 0.0; 1.6145877721027288E9; 2021-03-01 11:36:12.102
195.0; -41777.01953125; -41226.2265625; -45459.4453125; 187500.0; -65081.08203125; -52291.2109375; -60688.11328125; -166671.984375; -0.23000000417232513; 0.9220000505447388; 0.24800001084804535; 192.0; 0.0; 0.0; 0.0; 0.0; 0.0; 0.0; 0.0; 0.0; 0.0; 1.6145877721027348E9; 2021-03-01 11:36:12.102
196.0; -187500.015625; -187500.015625; -187500.015625; -26716.525390625; -187500.015625; -187500.015625; -187500.015625; -185594.796875; -0.23000000417232513; 0.9220000505447388; 0.24800001084804535; 192.0; 0.0; 0.0; 0.0; 0.0; 0.0; 0.0; 0.0; 0.0; 0.0; 1.6145877721027405E9; 2021-03-01 11:36:12.102
197.0; -41711.55078125; -41146.07421875; -45407.859375; 187500.0; -64985.8828125; -52228.58203125; -60620.9921875; -166913.390625; -0.23000000417232513; 0.9220000505447388; 0.24800001084804535; 192.0; 0.0; 0.0; 0.0; 0.0; 0.0; 0.0; 0.0; 0.0; 0.0; 1.6145877721027465E9; 2021-03-01 11:36:12.102
198.0; -187500.015625; -187500.015625; -187500.015625; -26717.75390625; -187500.015625; -187500.015625; -187500.015625; -185600.765625; -0.23000000417232513; 0.9220000505447388; 0.24800001084804535; 192.0; 0.0; 0.0; 0.0; 0.0; 0.0; 0.0; 0.0; 0.0; 0.0; 1.6145877721027522E9; 2021-03-01 11:36:12.102
199.0; -41741.8828125; -41192.8125; -45468.69921875; 187500.0; -64993.39453125; -52268.2578125; -60653.89453125; -166813.28125; -0.23000000417232513; 0.9220000505447388; 0.24800001084804535; 192.0; 0.0; 0.0; 0.0; 0.0; 0.0; 0.0; 0.0; 0.0; 0.0; 1.614587772102758E9; 2021-03-01 11:36:12.102
200.0; -187500.015625; -187500.015625; -187500.015625; -26708.58984375; -187500.015625; -187500.015625; -187500.015625; -185586.109375; -0.23000000417232513; 0.9220000505447388; 0.24800001084804535; 192.0; 0.0; 0.0; 0.0; 0.0; 0.0; 0.0; 0.0; 0.0; 0.0; 1.614587772102764E9; 2021-03-01 11:36:12.102
201.0; -41720.9375; -41192.36328125; -45477.39453125; 187500.0; -64935.8828125; -52255.15625; -60656.0390625; -166739.828125; -0.23000000417232513; 0.9220000505447388; 0.24800001084804535; 192.0; 0.0; 0.0; 0.0; 0.0; 0.0; 0.0; 0.0; 0.0; 0.0; 1.6145877721027696E9; 2021-03-01 11:36:12.102
202.0; -187500.015625; -187500.015625; -187500.015625; -26714.267578125; -187500.015625; -187500.015625; -187500.015625; -185594.5; -0.23000000417232513; 0.9220000505447388; 0.24800001084804535; 192.0; 0.0; 0.0; 0.0; 0.0; 0.0; 0.0; 0.0; 0.0; 0.0; 1.6145877721027756E9; 2021-03-01 11:36:12.102
203.0; -41708.578125; -41195.3125; -45495.05078125; 187500.0; -64890.41796875; -52260.72265625; -60663.1015625; -166707.484375; -0.242000013589859; 0.9220000505447388; 0.24400001764297485; 192.0; 248.0; 112.0; 28.0; 208.0; 7.0; 160.0; 0.0; 0.0; 0.0; 1.6145877721027813E9; 2021-03-01 11:36:12.102
204.0; -187500.015625; -187500.015625; -187500.015625; -26704.58984375; -187500.015625; -187500.015625; -187500.015625; -185582.296875; -0.242000013589859; 0.9220000505447388; 0.24400001764297485; 192.0; 0.0; 0.0; 0.0; 0.0; 0.0; 0.0; 0.0; 0.0; 0.0; 1.61458777210279E9; 2021-03-01 11:36:12.102
205.0; -41732.58203125; -41220.50390625; -45552.96484375; 187500.0; -64869.65625; -52298.765625; -60703.58203125; -166641.59375; -0.242000013589859; 0.9220000505447388; 0.24400001764297485; 192.0; 0.0; 0.0; 0.0; 0.0; 0.0; 0.0; 0.0; 0.0; 0.0; 1.614587772102796E9; 2021-03-01 11:36:12.102
206.0; -187500.015625; -187500.015625; -187500.015625; -26703.78515625; -187500.015625; -187500.015625; -187500.015625; -185576.46875; -0.242000013589859; 0.9220000505447388; 0.24400001764297485; 192.0; 0.0; 0.0; 0.0; 0.0; 0.0; 0.0; 0.0; 0.0; 0.0; 1.6145877721028018E9; 2021-03-01 11:36:12.102
207.0; -41659.9609375; -41163.26171875; -45523.015625; 187500.0; -64754.6328125; -52238.796875; -60654.453125; -166929.953125; -0.242000013589859; 0.9220000505447388; 0.24400001764297485; 192.0; 0.0; 0.0; 0.0; 0.0; 0.0; 0.0; 0.0; 0.0; 0.0; 1.6145877721028075E9; 2021-03-01 11:36:12.102
208.0; -187500.015625; -187500.015625; -187500.015625; -26707.337890625; -187500.015625; -187500.015625; -187500.015625; -185581.09375; -0.242000013589859; 0.9220000505447388; 0.24400001764297485; 192.0; 0.0; 0.0; 0.0; 0.0; 0.0; 0.0; 0.0; 0.0; 0.0; 1.6145877721028135E9; 2021-03-01 11:36:12.102
209.0; -41699.66015625; -41215.8125; -45603.03515625; 187500.0; -64743.01171875; -52296.84375; -60703.69140625; -166834.59375; -0.242000013589859; 0.9220000505447388; 0.24400001764297485; 192.0; 0.0; 0.0; 0.0; 0.0; 0.0; 0.0; 0.0; 0.0; 0.0; 1.6145877721028192E9; 2021-03-01 11:36:12.102
210.0; -187500.015625; -187500.015625; -187500.015625; -26700.052734375; -187500.015625; -187500.015625; -187500.015625; -185563.890625; -0.242000013589859; 0.9220000505447388; 0.24400001764297485; 192.0; 0.0; 0.0; 0.0; 0.0; 0.0; 0.0; 0.0; 0.0; 0.0; 1.6145877721028252E9; 2021-03-01 11:36:12.102
211.0; -41705.3125; -41237.26953125; -45649.0546875; 187500.0; -64700.67578125; -52319.0859375; -60726.42578125; -166703.5; -0.242000013589859; 0.9220000505447388; 0.24400001764297485; 192.0; 0.0; 0.0; 0.0; 0.0; 0.0; 0.0; 0.0; 0.0; 0.0; 1.614587772102831E9; 2021-03-01 11:36:12.102
212.0; -187500.015625; -187500.015625; -187500.015625; -26705.349609375; -187500.015625; -187500.015625; -187500.015625; -185567.625; -0.242000013589859; 0.9220000505447388; 0.24400001764297485; 192.0; 0.0; 0.0; 0.0; 0.0; 0.0; 0.0; 0.0; 0.0; 0.0; 1.6145877721028368E9; 2021-03-01 11:36:12.102
213.0; -41711.03515625; -41248.37890625; -45700.62109375; 187500.0; -64660.46484375; -52331.84765625; -60741.19921875; -166649.953125; -0.242000013589859; 0.9240000247955322; 0.23800000548362732; 192.0; 248.0; 112.0; 28.0; 224.0; 7.0; 112.0; 0.0; 0.0; 0.0; 1.6145877721028428E9; 2021-03-01 11:36:12.102
214.0; -187500.015625; -187500.015625; -187500.015625; -26702.197265625; -187500.015625; -187500.015625; -187500.015625; -185557.8125; -0.242000013589859; 0.9240000247955322; 0.23800000548362732; 192.0; 0.0; 0.0; 0.0; 0.0; 0.0; 0.0; 0.0; 0.0; 0.0; 1.6145877721028483E9; 2021-03-01 11:36:12.102
215.0; -41788.10546875; -41309.3515625; -45815.171875; 187500.0; -64754.58984375; -52403.1953125; -60815.49609375; -166539.78125; -0.242000013589859; 0.9240000247955322; 0.23800000548362732; 192.0; 0.0; 0.0; 0.0; 0.0; 0.0; 0.0; 0.0; 0.0; 0.0; 1.6145877721028545E9; 2021-03-01 11:36:12.102
216.0; -187500.015625; -187500.015625; -187500.015625; -26698.15234375; -187500.015625; -187500.015625; -187500.015625; -185546.0; -0.242000013589859; 0.9240000247955322; 0.23800000548362732; 192.0; 0.0; 0.0; 0.0; 0.0; 0.0; 0.0; 0.0; 0.0; 0.0; 1.61458777210286E9; 2021-03-01 11:36:12.102
217.0; -41743.6484375; -41236.46484375; -45793.78125; 187500.0; -64872.24609375; -52328.3359375; -60743.0546875; -166910.015625; -0.242000013589859; 0.9240000247955322; 0.23800000548362732; 192.0; 0.0; 0.0; 0.0; 0.0; 0.0; 0.0; 0.0; 0.0; 0.0; 1.614587772102866E9; 2021-03-01 11:36:12.102
218.0; -187500.015625; -187500.015625; -187500.015625; -26702.3984375; -187500.015625; -187500.015625; -187500.015625; -185549.71875; -0.242000013589859; 0.9240000247955322; 0.23800000548362732; 192.0; 0.0; 0.0; 0.0; 0.0; 0.0; 0.0; 0.0; 0.0; 0.0; 1.614587772102872E9; 2021-03-01 11:36:12.102
219.0; -41791.6796875; -41303.98828125; -45894.96875; 187500.0; -64909.8671875; -52389.8046875; -60802.59765625; -166796.625; -0.242000013589859; 0.9240000247955322; 0.23800000548362732; 192.0; 0.0; 0.0; 0.0; 0.0; 0.0; 0.0; 0.0; 0.0; 0.0; 1.6145877721028776E9; 2021-03-01 11:36:12.102
220.0; -187500.015625; -187500.015625; -187500.015625; -26695.111328125; -187500.015625; -187500.015625; -187500.015625; -185531.34375; -0.242000013589859; 0.9240000247955322; 0.23800000548362732; 192.0; 0.0; 0.0; 0.0; 0.0; 0.0; 0.0; 0.0; 0.0; 0.0; 1.6145877721028836E9; 2021-03-01 11:36:12.102
221.0; -41801.8046875; -41314.5625; -45932.8125; 187500.0; -64898.17578125; -52392.10546875; -60811.0703125; -166634.890625; -0.242000013589859; 0.9240000247955322; 0.23800000548362732; 192.0; 0.0; 0.0; 0.0; 0.0; 0.0; 0.0; 0.0; 0.0; 0.0; 1.6145877721028893E9; 2021-03-01 11:36:12.102
222.0; -187500.015625; -187500.015625; -187500.015625; -26700.923828125; -187500.015625; -187500.015625; -187500.015625; -185535.34375; -0.242000013589859; 0.9240000247955322; 0.23800000548362732; 192.0; 0.0; 0.0; 0.0; 0.0; 0.0; 0.0; 0.0; 0.0; 0.0; 1.6145877721028953E9; 2021-03-01 11:36:12.102
223.0; -41745.546875; -41269.140625; -45923.22265625; 187500.0; -64855.83984375; -52341.32421875; -60775.46484375; -166780.0625; -0.23800000548362732; 0.9320000410079956; 0.24800001084804535; 192.0; 248.0; 144.0; 29.0; 32.0; 7.0; 192.0; 0.0; 0.0; 0.0; 1.614587772102901E9; 2021-03-01 11:36:12.102
224.0; -187500.015625; -187500.015625; -187500.015625; -26696.029296875; -187500.015625; -187500.015625; -187500.015625; -185524.765625; -0.23800000548362732; 0.9320000410079956; 0.24800001084804535; 192.0; 0.0; 0.0; 0.0; 0.0; 0.0; 0.0; 0.0; 0.0; 0.0; 1.6145877721029067E9; 2021-03-01 11:36:12.102
225.0; -41739.734375; -41285.546875; -45975.6796875; 187500.0; -64852.109375; -52367.54296875; -60797.75; -166625.09375; -0.23800000548362732; 0.9320000410079956; 0.24800001084804535; 192.0; 0.0; 0.0; 0.0; 0.0; 0.0; 0.0; 0.0; 0.0; 0.0; 1.6145877721029127E9; 2021-03-01 11:36:12.102
226.0; -187500.015625; -187500.015625; -187500.015625; -26695.24609375; -187500.015625; -187500.015625; -187500.015625; -185516.546875; -0.23800000548362732; 0.9320000410079956; 0.24800001084804535; 192.0; 0.0; 0.0; 0.0; 0.0; 0.0; 0.0; 0.0; 0.0; 0.0; 1.6145877721029184E9; 2021-03-01 11:36:12.102
227.0; -41677.93359375; -41222.76171875; -45922.84375; 187500.0; -64787.6015625; -52321.140625; -60741.15234375; -166870.9375; -0.23800000548362732; 0.9320000410079956; 0.24800001084804535; 192.0; 0.0; 0.0; 0.0; 0.0; 0.0; 0.0; 0.0; 0.0; 0.0; 1.6145877721029267E9; 2021-03-01 11:36:12.102
228.0; -187500.015625; -187500.015625; -187500.015625; -26699.314453125; -187500.015625; -187500.015625; -187500.015625; -185520.90625; -0.23800000548362732; 0.9320000410079956; 0.24800001084804535; 192.0; 0.0; 0.0; 0.0; 0.0; 0.0; 0.0; 0.0; 0.0; 0.0; 1.6145877721029327E9; 2021-03-01 11:36:12.102
229.0; -41693.578125; -41260.2890625; -45937.4140625; 187500.0; -64817.80078125; -52352.0078125; -60765.13671875; -166761.28125; -0.23800000548362732; 0.9320000410079956; 0.24800001084804535; 192.0; 0.0; 0.0; 0.0; 0.0; 0.0; 0.0; 0.0; 0.0; 0.0; 1.6145877721029387E9; 2021-03-01 11:36:12.102
230.0; -187500.015625; -187500.015625; -187500.015625; -26692.541015625; -187500.015625; -187500.015625; -187500.015625; -185505.015625; -0.23800000548362732; 0.9320000410079956; 0.24800001084804535; 192.0; 0.0; 0.0; 0.0; 0.0; 0.0; 0.0; 0.0; 0.0; 0.0; 1.6145877721029444E9; 2021-03-01 11:36:12.102
231.0; -41675.36328125; -41241.828125; -45915.7578125; 187500.0; -64804.9453125; -52329.92578125; -60745.24609375; -166648.15625; -0.23800000548362732; 0.9320000410079956; 0.24800001084804535; 192.0; 0.0; 0.0; 0.0; 0.0; 0.0; 0.0; 0.0; 0.0; 0.0; 1.61458777210295E9; 2021-03-01 11:36:12.102
232.0; -187500.015625; -187500.015625; -187500.015625; -26699.4921875; -187500.015625; -187500.015625; -187500.015625; -185512.25; -0.20800000429153442; 0.9320000410079956; 0.24800001084804535; 192.0; 249.0; 128.0; 29.0; 32.0; 7.0; 192.0; 0.0; 0.0; 0.0; 1.614587772102956E9; 2021-03-01 11:36:12.102
233.0; -41628.7578125; -41196.20703125; -45883.859375; 187500.0; -64798.98046875; -52288.08203125; -60701.81640625; -166810.015625; -0.20800000429153442; 0.9320000410079956; 0.24800001084804535; 192.0; 0.0; 0.0; 0.0; 0.0; 0.0; 0.0; 0.0; 0.0; 0.0; 1.614587772102962E9; 2021-03-01 11:36:12.102
234.0; -187500.015625; -187500.015625; -187500.015625; -26695.828125; -187500.015625; -187500.015625; -187500.015625; -185505.84375; -0.20800000429153442; 0.9320000410079956; 0.24800001084804535; 192.0; 0.0; 0.0; 0.0; 0.0; 0.0; 0.0; 0.0; 0.0; 0.0; 1.6145877721029675E9; 2021-03-01 11:36:12.102
235.0; -41644.16015625; -41230.65234375; -45935.78515625; 187500.0; -64876.3828125; -52333.8359375; -60735.05078125; -166656.8125; -0.20800000429153442; 0.9320000410079956; 0.24800001084804535; 192.0; 0.0; 0.0; 0.0; 0.0; 0.0; 0.0; 0.0; 0.0; 0.0; 1.6145877721029737E9; 2021-03-01 11:36:12.102
236.0; -187500.015625; -187500.015625; -187500.015625; -26689.30078125; -187500.015625; -187500.015625; -187500.015625; -185494.8125; -0.20800000429153442; 0.9320000410079956; 0.24800001084804535; 192.0; 0.0; 0.0; 0.0; 0.0; 0.0; 0.0; 0.0; 0.0; 0.0; 1.6145877722344E9; 2021-03-01 11:36:12.234
237.0; -41572.74609375; -41181.94921875; -45891.34765625; 187500.0; -64810.0859375; -52273.0859375; -60681.7421875; -166789.046875; -0.20800000429153442; 0.9320000410079956; 0.24800001084804535; 192.0; 0.0; 0.0; 0.0; 0.0; 0.0; 0.0; 0.0; 0.0; 0.0; 1.614587772234409E9; 2021-03-01 11:36:12.234
238.0; -187500.015625; -187500.015625; -187500.015625; -26694.822265625; -187500.015625; -187500.015625; -187500.015625; -185504.671875; -0.20800000429153442; 0.9320000410079956; 0.24800001084804535; 192.0; 0.0; 0.0; 0.0; 0.0; 0.0; 0.0; 0.0; 0.0; 0.0; 1.614587772234416E9; 2021-03-01 11:36:12.234
239.0; -41581.75390625; -41213.46484375; -45923.87109375; 187500.0; -64835.14453125; -52304.3984375; -60716.25390625; -166814.75; -0.20800000429153442; 0.9320000410079956; 0.24800001084804535; 192.0; 0.0; 0.0; 0.0; 0.0; 0.0; 0.0; 0.0; 0.0; 0.0; 1.6145877722344227E9; 2021-03-01 11:36:12.234
240.0; -187500.015625; -187500.015625; -187500.015625; -26683.869140625; -187500.015625; -187500.015625; -187500.015625; -185488.21875; -0.20800000429153442; 0.9320000410079956; 0.24800001084804535; 192.0; 0.0; 0.0; 0.0; 0.0; 0.0; 0.0; 0.0; 0.0; 0.0; 1.6145877722344294E9; 2021-03-01 11:36:12.234
241.0; -41580.546875; -41210.66796875; -45922.9765625; 187500.0; -64812.078125; -52296.3515625; -60723.62890625; -166711.359375; -0.20800000429153442; 0.9320000410079956; 0.24800001084804535; 192.0; 0.0; 0.0; 0.0; 0.0; 0.0; 0.0; 0.0; 0.0; 0.0; 1.614587772234436E9; 2021-03-01 11:36:12.234
242.0; -187500.015625; -187500.015625; -187500.015625; -26688.630859375; -187500.015625; -187500.015625; -187500.015625; -185497.125; -0.22200001776218414; 0.9340000152587891; 0.24800001084804535; 192.0; 249.0; 16.0; 29.0; 48.0; 7.0; 192.0; 0.0; 0.0; 0.0; 1.6145877722344427E9; 2021-03-01 11:36:12.234
243.0; -41565.52734375; -41201.03515625; -45916.58203125; 187500.0; -64778.3046875; -52280.9296875; -60706.171875; -166736.78125; -0.22200001776218414; 0.9340000152587891; 0.24800001084804535; 192.0; 0.0; 0.0; 0.0; 0.0; 0.0; 0.0; 0.0; 0.0; 0.0; 1.6145877722344496E9; 2021-03-01 11:36:12.234
244.0; -187500.015625; -187500.015625; -187500.015625; -26684.607421875; -187500.015625; -187500.015625; -187500.015625; -185494.03125; -0.22200001776218414; 0.9340000152587891; 0.24800001084804535; 192.0; 0.0; 0.0; 0.0; 0.0; 0.0; 0.0; 0.0; 0.0; 0.0; 1.6145877722344563E9; 2021-03-01 11:36:12.234
245.0; -41613.91796875; -41253.765625; -45982.9921875; 187500.0; -64821.28515625; -52347.3125; -60751.14453125; -166632.0; -0.22200001776218414; 0.9340000152587891; 0.24800001084804535; 192.0; 0.0; 0.0; 0.0; 0.0; 0.0; 0.0; 0.0; 0.0; 0.0; 1.6145877722344642E9; 2021-03-01 11:36:12.234
246.0; -187500.015625; -187500.015625; -187500.015625; -26679.66796875; -187500.015625; -187500.015625; -187500.015625; -185488.21875; -0.22200001776218414; 0.9340000152587891; 0.24800001084804535; 192.0; 0.0; 0.0; 0.0; 0.0; 0.0; 0.0; 0.0; 0.0; 0.0; 1.6145877722344708E9; 2021-03-01 11:36:12.234
247.0; -41556.1171875; -41206.78125; -45945.7734375; 187500.0; -64764.40234375; -52296.44140625; -60701.45703125; -166930.0625; -0.22200001776218414; 0.9340000152587891; 0.24800001084804535; 192.0; 0.0; 0.0; 0.0; 0.0; 0.0; 0.0; 0.0; 0.0; 0.0; 1.6145877722344775E9; 2021-03-01 11:36:12.234
248.0; -187500.015625; -187500.015625; -187500.015625; -26685.166015625; -187500.015625; -187500.015625; -187500.015625; -185500.828125; -0.22200001776218414; 0.9340000152587891; 0.24800001084804535; 192.0; 0.0; 0.0; 0.0; 0.0; 0.0; 0.0; 0.0; 0.0; 0.0; 1.614587772234484E9; 2021-03-01 11:36:12.234
249.0; -41561.97265625; -41232.73046875; -45983.34765625; 187500.0; -64782.52734375; -52321.296875; -60724.12109375; -166938.890625; -0.22200001776218414; 0.9340000152587891; 0.24800001084804535; 192.0; 0.0; 0.0; 0.0; 0.0; 0.0; 0.0; 0.0; 0.0; 0.0; 1.6145877722344909E9; 2021-03-01 11:36:12.234
250.0; -187500.015625; -187500.015625; -187500.015625; -26678.86328125; -187500.015625; -187500.015625; -187500.015625; -185491.640625; -0.22200001776218414; 0.9340000152587891; 0.24800001084804535; 192.0; 0.0; 0.0; 0.0; 0.0; 0.0; 0.0; 0.0; 0.0; 0.0; 1.6145877722344973E9; 2021-03-01 11:36:12.234
251.0; -41564.3203125; -41239.125; -45996.15625; 187500.0; -64790.10546875; -52319.64453125; -60723.51953125; -166892.984375; -0.22200001776218414; 0.9340000152587891; 0.24800001084804535; 192.0; 0.0; 0.0; 0.0; 0.0; 0.0; 0.0; 0.0; 0.0; 0.0; 1.6145877722345111E9; 2021-03-01 11:36:12.234
252.0; -187500.015625; -187500.015625; -187500.015625; -26683.265625; -187500.015625; -187500.015625; -187500.015625; -185501.640625; -0.23000000417232513; 0.9280000329017639; 0.24400001764297485; 192.0; 248.0; 208.0; 29.0; 0.0; 7.0; 160.0; 0.0; 0.0; 0.0; 1.614587772234518E9; 2021-03-01 11:36:12.234
253.0; -41545.4765625; -41225.95703125; -45998.34765625; 187500.0; -64778.59375; -52300.15234375; -60710.01953125; -166941.46875; -0.23000000417232513; 0.9280000329017639; 0.24400001764297485; 192.0; 0.0; 0.0; 0.0; 0.0; 0.0; 0.0; 0.0; 0.0; 0.0; 1.6145877722345247E9; 2021-03-01 11:36:12.234
254.0; -187500.015625; -187500.015625; -187500.015625; -26679.95703125; -187500.015625; -187500.015625; -187500.015625; -185500.515625; -0.23000000417232513; 0.9280000329017639; 0.24400001764297485; 192.0; 0.0; 0.0; 0.0; 0.0; 0.0; 0.0; 0.0; 0.0; 0.0; 1.6145877722345312E9; 2021-03-01 11:36:12.234
255.0; -41579.5390625; -41295.91796875; -46063.078125; 187500.0; -64831.03125; -52350.17578125; -60764.51171875; -166793.734375; -0.23000000417232513; 0.9280000329017639; 0.24400001764297485; 192.0; 0.0; 0.0; 0.0; 0.0; 0.0; 0.0; 0.0; 0.0; 0.0; 1.614587772234538E9; 2021-03-01 11:36:12.234
0.0; -187500.015625; -187500.015625; -187500.015625; -26672.916015625; -187500.015625; -187500.015625; -187500.015625; -185492.71875; -0.23000000417232513; 0.9280000329017639; 0.24400001764297485; 192.0; 0.0; 0.0; 0.0; 0.0; 0.0; 0.0; 0.0; 0.0; 0.0; 1.6145877722345445E9; 2021-03-01 11:36:12.234
1.0; -41524.5546875; -41238.65234375; -46015.04296875; 187500.0; -64800.03125; -52293.53515625; -60722.53515625; -166806.640625; -0.23000000417232513; 0.9280000329017639; 0.24400001764297485; 192.0; 0.0; 0.0; 0.0; 0.0; 0.0; 0.0; 0.0; 0.0; 0.0; 1.6145877722345512E9; 2021-03-01 11:36:12.234
2.0; -187500.015625; -187500.015625; -187500.015625; -26679.466796875; -187500.015625; -187500.015625; -187500.015625; -185506.90625; -0.23000000417232513; 0.9280000329017639; 0.24400001764297485; 192.0; 0.0; 0.0; 0.0; 0.0; 0.0; 0.0; 0.0; 0.0; 0.0; 1.6145877722345576E9; 2021-03-01 11:36:12.234
3.0; -41523.55078125; -41265.41015625; -46033.50390625; 187500.0; -64831.1875; -52309.33984375; -60741.30859375; -166797.765625; -0.23000000417232513; 0.9280000329017639; 0.24400001764297485; 192.0; 0.0; 0.0; 0.0; 0.0; 0.0; 0.0; 0.0; 0.0; 0.0; 1.6145877722345643E9; 2021-03-01 11:36:12.234
4.0; -187500.015625; -187500.015625; -187500.015625; -26673.095703125; -187500.015625; -187500.015625; -187500.015625; -185498.109375; -0.23000000417232513; 0.9280000329017639; 0.24400001764297485; 192.0; 0.0; 0.0; 0.0; 0.0; 0.0; 0.0; 0.0; 0.0; 0.0; 1.614587772234571E9; 2021-03-01 11:36:12.234
5.0; -41529.8515625; -41279.1796875; -46038.78125; 187500.0; -64858.12109375; -52318.12109375; -60759.48046875; -166745.59375; -0.23000000417232513; 0.9280000329017639; 0.24400001764297485; 192.0; 0.0; 0.0; 0.0; 0.0; 0.0; 0.0; 0.0; 0.0; 0.0; 1.6145877722345777E9; 2021-03-01 11:36:12.234
6.0; -187500.015625; -187500.015625; -187500.015625; -26676.626953125; -187500.015625; -187500.015625; -187500.015625; -185507.375; -0.23000000417232513; 0.9200000166893005; 0.24800001084804535; 192.0; 248.0; 208.0; 28.0; 192.0; 7.0; 192.0; 0.0; 0.0; 0.0; 1.6145877722345843E9; 2021-03-01 11:36:12.234
7.0; -41519.86328125; -41261.7421875; -46013.1640625; 187500.0; -64866.7265625; -52289.2890625; -60712.03125; -166815.359375; -0.23000000417232513; 0.9200000166893005; 0.24800001084804535; 192.0; 0.0; 0.0; 0.0; 0.0; 0.0; 0.0; 0.0; 0.0; 0.0; 1.6145877722345912E9; 2021-03-01 11:36:12.234
8.0; -187500.015625; -187500.015625; -187500.015625; -26674.50390625; -187500.015625; -187500.015625; -187500.015625; -185507.9375; -0.23000000417232513; 0.9200000166893005; 0.24800001084804535; 192.0; 0.0; 0.0; 0.0; 0.0; 0.0; 0.0; 0.0; 0.0; 0.0; 1.6145877722345977E9; 2021-03-01 11:36:12.234
9.0; -41559.4921875; -41297.23828125; -46046.15625; 187500.0; -64912.50390625; -52333.58984375; -60742.00390625; -166752.078125; -0.23000000417232513; 0.9200000166893005; 0.24800001084804535; 192.0; 0.0; 0.0; 0.0; 0.0; 0.0; 0.0; 0.0; 0.0; 0.0; 1.6145877722346044E9; 2021-03-01 11:36:12.234
10.0; -187500.015625; -187500.015625; -187500.015625; -26666.76953125; -187500.015625; -187500.015625; -187500.015625; -185500.203125; -0.23000000417232513; 0.9200000166893005; 0.24800001084804535; 192.0; 0.0; 0.0; 0.0; 0.0; 0.0; 0.0; 0.0; 0.0; 0.0; 1.6145877722346108E9; 2021-03-01 11:36:12.234
11.0; -41532.69140625; -41277.16796875; -46015.0859375; 187500.0; -64899.16015625; -52309.33984375; -60726.42578125; -166752.453125; -0.23000000417232513; 0.9200000166893005; 0.24800001084804535; 192.0; 0.0; 0.0; 0.0; 0.0; 0.0; 0.0; 0.0; 0.0; 0.0; 1.6145877722346177E9; 2021-03-01 11:36:12.234
12.0; -187500.015625; -187500.015625; -187500.015625; -26663.73046875; -187500.015625; -187500.015625; -187500.015625; -185505.5625; -0.23000000417232513; 0.9200000166893005; 0.24800001084804535; 192.0; 0.0; 0.0; 0.0; 0.0; 0.0; 0.0; 0.0; 0.0; 0.0; 1.6145877722503555E9; 2021-03-01 11:36:12.250
13.0; -41537.65234375; -41286.59765625; -46011.33203125; 187500.0; -64923.1875; -52317.85546875; -60737.19921875; -166712.15625; -0.23000000417232513; 0.9200000166893005; 0.24800001084804535; 192.0; 0.0; 0.0; 0.0; 0.0; 0.0; 0.0; 0.0; 0.0; 0.0; 1.6145877725933907E9; 2021-03-01 11:36:12.593
14.0; -187500.015625; -187500.015625; -187500.015625; -26653.26953125; -187500.015625; -187500.015625; -187500.015625; -185493.234375; -0.23000000417232513; 0.9200000166893005; 0.24800001084804535; 192.0; 0.0; 0.0; 0.0; 0.0; 0.0; 0.0; 0.0; 0.0; 0.0; 1.6145877725934005E9; 2021-03-01 11:36:12.593
15.0; -41551.421875; -41296.58984375; -45983.52734375; 187500.0; -64950.79296875; -52322.03515625; -60753.40234375; -166638.265625; -0.23000000417232513; 0.9200000166893005; 0.24800001084804535; 192.0; 0.0; 0.0; 0.0; 0.0; 0.0; 0.0; 0.0; 0.0; 0.0; 1.6145877725934072E9; 2021-03-01 11:36:12.593
16.0; -187500.015625; -187500.015625; -187500.015625; -26652.263671875; -187500.015625; -187500.015625; -187500.015625; -185498.421875; -0.23600001633167267; 0.9240000247955322; 0.24000000953674316; 192.0; 248.0; 160.0; 28.0; 224.0; 7.0; 128.0; 0.0; 0.0; 0.0; 1.614587772593414E9; 2021-03-01 11:36:12.593
17.0; -41483.5390625; -41248.21875; -45881.8046875; 187500.0; -64898.3984375; -52250.53125; -60702.171875; -166921.765625; -0.23600001633167267; 0.9240000247955322; 0.24000000953674316; 192.0; 0.0; 0.0; 0.0; 0.0; 0.0; 0.0; 0.0; 0.0; 0.0; 1.6145877725934205E9; 2021-03-01 11:36:12.593
18.0; -187500.015625; -187500.015625; -187500.015625; -26646.921875; -187500.015625; -187500.015625; -187500.015625; -185495.9375; -0.23600001633167267; 0.9240000247955322; 0.24000000953674316; 192.0; 0.0; 0.0; 0.0; 0.0; 0.0; 0.0; 0.0; 0.0; 0.0; 1.6145877725934353E9; 2021-03-01 11:36:12.593
19.0; -41517.8515625; -41291.96484375; -45893.203125; 187500.0; -64956.4453125; -52289.33203125; -60725.44140625; -166826.625; -0.23600001633167267; 0.9240000247955322; 0.24000000953674316; 192.0; 0.0; 0.0; 0.0; 0.0; 0.0; 0.0; 0.0; 0.0; 0.0; 1.6145877725934415E9; 2021-03-01 11:36:12.593
20.0; -187500.015625; -187500.015625; -187500.015625; -26640.953125; -187500.015625; -187500.015625; -187500.015625; -185489.453125; -0.23600001633167267; 0.9240000247955322; 0.24000000953674316; 192.0; 0.0; 0.0; 0.0; 0.0; 0.0; 0.0; 0.0; 0.0; 0.0; 1.6145877725934477E9; 2021-03-01 11:36:12.593
21.0; -41482.87109375; -41256.8046875; -45840.4296875; 187500.0; -64956.06640625; -52253.70703125; -60693.27734375; -166847.78125; -0.23600001633167267; 0.9240000247955322; 0.24000000953674316; 192.0; 0.0; 0.0; 0.0; 0.0; 0.0; 0.0; 0.0; 0.0; 0.0; 1.614587772593454E9; 2021-03-01 11:36:12.593
22.0; -187500.015625; -187500.015625; -187500.015625; -26642.697265625; -187500.015625; -187500.015625; -187500.015625; -185498.75; -0.23600001633167267; 0.9240000247955322; 0.24000000953674316; 192.0; 0.0; 0.0; 0.0; 0.0; 0.0; 0.0; 0.0; 0.0; 0.0; 1.61458777259346E9; 2021-03-01 11:36:12.593
23.0; -41502.11328125; -41290.0390625; -45834.08203125; 187500.0; -65015.92578125; -52283.87890625; -60724.5; -166814.703125; -0.23600001633167267; 0.9240000247955322; 0.24000000953674316; 192.0; 0.0; 0.0; 0.0; 0.0; 0.0; 0.0; 0.0; 0.0; 0.0; 1.6145877725934663E9; 2021-03-01 11:36:12.593
24.0; -187500.015625; -187500.015625; -187500.015625; -26633.421875; -187500.015625; -187500.015625; -187500.015625; -185486.84375; -0.23600001633167267; 0.9240000247955322; 0.24000000953674316; 192.0; 0.0; 0.0; 0.0; 0.0; 0.0; 0.0; 0.0; 0.0; 0.0; 1.6145877725934727E9; 2021-03-01 11:36:12.593
25.0; -41490.6015625; -41273.56640625; -45789.55859375; 187500.0; -65041.7421875; -52271.98828125; -60724.2578125; -166762.40625; -0.23800000548362732; 0.9220000505447388; 0.23800000548362732; 192.0; 248.0; 144.0; 28.0; 208.0; 7.0; 112.0; 0.0; 0.0; 0.0; 1.614587772593479E9; 2021-03-01 11:36:12.593
26.0; -187500.015625; -187500.015625; -187500.015625; -26635.923828125; -187500.015625; -187500.015625; -187500.015625; -185494.546875; -0.23800000548362732; 0.9220000505447388; 0.23800000548362732; 192.0; 0.0; 0.0; 0.0; 0.0; 0.0; 0.0; 0.0; 0.0; 0.0; 1.614587772593485E9; 2021-03-01 11:36:12.593
27.0; -41475.515625; -41261.23046875; -45733.7890625; 187500.0; -65060.73828125; -52255.203125; -60704.31640625; -166829.03125; -0.23800000548362732; 0.9220000505447388; 0.23800000548362732; 192.0; 0.0; 0.0; 0.0; 0.0; 0.0; 0.0; 0.0; 0.0; 0.0; 1.6145877725934913E9; 2021-03-01 11:36:12.593
28.0; -187500.015625; -187500.015625; -187500.015625; -26631.455078125; -187500.015625; -187500.015625; -187500.015625; -185492.515625; -0.23800000548362732; 0.9220000505447388; 0.23800000548362732; 192.0; 0.0; 0.0; 0.0; 0.0; 0.0; 0.0; 0.0; 0.0; 0.0; 1.6145877725934975E9; 2021-03-01 11:36:12.593
29.0; -41518.02734375; -41312.55078125; -45741.546875; 187500.0; -65101.5078125; -52295.390625; -60747.90234375; -166739.421875; -0.23800000548362732; 0.9220000505447388; 0.23800000548362732; 192.0; 0.0; 0.0; 0.0; 0.0; 0.0; 0.0; 0.0; 0.0; 0.0; 1.614587772593504E9; 2021-03-01 11:36:12.593
30.0; -187500.015625; -187500.015625; -187500.015625; -26631.3203125; -187500.015625; -187500.015625; -187500.015625; -185491.078125; -0.23800000548362732; 0.9220000505447388; 0.23800000548362732; 192.0; 0.0; 0.0; 0.0; 0.0; 0.0; 0.0; 0.0; 0.0; 0.0; 1.61458777259351E9; 2021-03-01 11:36:12.593
